TimeStamp,Delta_TP9,Delta_AF7,Delta_AF8,Delta_TP10,Theta_TP9,Theta_AF7,Theta_AF8,Theta_TP10,Alpha_TP9,Alpha_AF7,Alpha_AF8,Alpha_TP10,Beta_TP9,Beta_AF7,Beta_AF8,Beta_TP10,Gamma_TP9,Gamma_AF7,Gamma_AF8,Gamma_TP10,RAW_TP9,RAW_AF7,RAW_AF8,RAW_TP10,AUX_1,AUX_2,AUX_3,AUX_4,Accelerometer_X,Accelerometer_Y,Accelerometer_Z,Gyro_X,Gyro_Y,Gyro_Z,Optics1,Optics2,Optics3,Optics4,Optics5,Optics6,Optics7,Optics8,Optics9,Optics10,Optics11,Optics12,Optics13,Optics14,Optics15,Optics16,Heart_Rate,HeadBandOn,HSI_TP9,HSI_AF7,HSI_AF8,HSI_TP10,Battery,Elements
2026-01-24 06:27:51.918,,,,,,,,,,,,,,,,,,,,,,,,,,,,,,,,,,,,,,,,,,,,,,,,,,,,,,,,,,/muse/event/connected MuseS-0465
2026-01-24 06:27:51.925,0.6793232,-0.3157062,-0.34089252,0.4805068,0.5280513,0.02468903,-0.16704912,0.41867,0.6895098,0.6672116,0.58595747,0.8206533,1.0934713,0.9112516,0.8669579,1.0214173,1.1629163,0.94751906,0.9410307,1.1115817,730.0006,716.54767,713.0074,728.14197,525.9049,514.39905,543.5177,556.0856,0.115478515625,-0.0050048828125,1.0126953125,0.186920166015625,-0.396270751953125,0.605621337890625,5.592076866223207,5.868749493360037,4.192325775457168,3.9059485492215624,0.0,0.0,0.0,0.0,0.0,0.0,0.0,0.0,0.0,0.0,0.0,0.0,57.912304,1,1.0,1.0,1.0,1.0,62.85
2026-01-24 06:27:52.071,,,,,,,,,,,,,,,,,,,,,,,,,,,,,,,,,,,,,,,,,,,,,,,,,,,,,,,,,,/muse/elements/jaw_clench
2026-01-24 06:27:52.322,,,,,,,,,,,,,,,,,,,,,,,,,,,,,,,,,,,,,,,,,,,,,,,,,,,,,,,,,,/muse/elements/jaw_clench
2026-01-24 06:27:52.605,,,,,,,,,,,,,,,,,,,,,,,,,,,,,,,,,,,,,,,,,,,,,,,,,,,,,,,,,,/muse/elements/blink
2026-01-24 06:27:52.936,0.8756469,-0.49783272,-0.028074699,0.37571496,0.44136405,-0.34760517,-0.05166572,0.14716753,0.6791307,0.30276728,0.49077806,0.45857403,0.5005356,0.50929534,0.5533691,0.46972278,0.7054753,0.6740107,0.7129459,0.66829324,740.17883,725.48676,723.6282,738.1432,752.1272,752.3927,745.4007,1340.6946,0.008056640625,0.0240478515625,0.97808837890625,7.70111083984375,3.768310546875,-28.57635498046875,5.591771690150919,5.863469947309444,4.1906778246668095,3.9017066018167514,0.0,0.0,0.0,0.0,0.0,0.0,0.0,0.0,0.0,0.0,0.0,0.0,58.073586,1,1.0,1.0,1.0,1.0,62.85
2026-01-24 06:27:53.938,1.0900446,-0.3615985,0.59875494,1.0780662,1.1154797,-0.31171468,0.4912603,1.1105397,1.2131257,0.26673716,0.6341749,1.288948,0.82904416,0.7277995,0.6232542,0.6995557,0.8655104,0.88451886,0.80933017,0.85136205,740.26733,736.9926,734.2489,742.126,758.5882,757.9686,754.16284,1206.7844,0.04052734375,0.02874755859375,1.0455322265625,0.575714111328125,2.669219970703125,6.572113037109375,5.585546098276232,5.854192594711871,4.188450039339103,3.893558400686646,0.0,0.0,0.0,0.0,0.0,0.0,0.0,0.0,0.0,0.0,0.0,0.0,58.77127,1,1.0,1.0,1.0,1.0,62.85
2026-01-24 06:27:54.627,,,,,,,,,,,,,,,,,,,,,,,,,,,,,,,,,,,,,,,,,,,,,,,,,,,,,,,,,,/muse/elements/blink
2026-01-24 06:27:54.838,,,,,,,,,,,,,,,,,,,,,,,,,,,,,,,,,,,,,,,,,,,,,,,,,,,,,,,,,,/muse/elements/jaw_clench
2026-01-24 06:27:54.944,0.6549083,-0.3615985,0.5795859,0.39449826,0.050645266,-0.31171468,0.3114822,0.48948932,0.5630603,0.26673716,0.14304556,0.29758105,0.48176438,0.7277995,-0.025299734,0.44501972,0.6555563,0.88451886,0.0939158,0.57956195,746.55133,744.4271,710.61774,717.96375,751.3306,746.46277,724.1592,1391.9398,-0.09259033203125,0.07366943359375,0.884521484375,6.452484130859375,19.521942138671875,-6.26556396484375,5.576757027394321,5.852971890422716,4.179416827599361,3.891452685787855,0.0,0.0,0.0,0.0,0.0,0.0,0.0,0.0,0.0,0.0,0.0,0.0,58.335167,1,1.0,1.0,1.0,1.0,62.85
2026-01-24 06:27:55.069,,,,,,,,,,,,,,,,,,,,,,,,,,,,,,,,,,,,,,,,,,,,,,,,,,,,,,,,,,/muse/elements/jaw_clench
2026-01-24 06:27:55.840,,,,,,,,,,,,,,,,,,,,,,,,,,,,,,,,,,,,,,,,,,,,,,,,,,,,,,,,,,/muse/elements/blink
2026-01-24 06:27:55.948,0.66718435,-0.3615985,0.5795859,0.4316523,0.025507983,-0.31171468,0.3114822,0.5250018,0.20941149,0.26673716,0.14304556,0.27904215,0.352437,0.7277995,-0.025299734,0.39084727,0.64436585,0.88451886,0.0939158,0.5418085,758.1456,730.0006,717.52124,746.55133,740.6214,730.9742,734.4259,1205.9879,-0.388916015625,-0.1448974609375,0.89495849609375,-10.818939208984375,1.143951416015625,6.751556396484375,5.595525355840069,5.878332022029897,4.201938821734259,3.9175147223613,0.0,0.0,0.0,0.0,0.0,0.0,0.0,0.0,0.0,0.0,0.0,0.0,59.16795,1,1.0,1.0,1.0,1.0,62.83
2026-01-24 06:27:56.437,,,,,,,,,,,,,,,,,,,,,,,,,,,,,,,,,,,,,,,,,,,,,,,,,,,,,,,,,,/muse/elements/jaw_clench
2026-01-24 06:27:56.949,0.66718435,-0.3615985,0.69140303,0.4316523,0.025507983,-0.31171468,-0.22324842,0.5250018,0.20941149,0.26673716,0.052617308,0.27904215,0.352437,0.7277995,0.16427463,0.39084727,0.64436585,0.88451886,0.36119723,0.5418085,743.36505,734.957,724.77875,736.8156,742.92255,739.7363,737.7007,1198.1993,-0.26617431640625,-0.03076171875,1.0228271484375,3.9776611328125,-2.37762451171875,12.75543212890625,5.603032687218368,5.891485110745536,4.215915885845075,3.931644374508261,0.0,0.0,0.0,0.0,0.0,0.0,0.0,0.0,0.0,0.0,0.0,0.0,63.38526,1,1.0,1.0,1.0,1.0,62.83
2026-01-24 06:27:57.702,,,,,,,,,,,,,,,,,,,,,,,,,,,,,,,,,,,,,,,,,,,,,,,,,,,,,,,,,,/muse/elements/jaw_clench
2026-01-24 06:27:57.850,,,,,,,,,,,,,,,,,,,,,,,,,,,,,,,,,,,,,,,,,,,,,,,,,,,,,,,,,,/muse/elements/jaw_clench
2026-01-24 06:27:57.952,0.66718435,0.6536083,0.27626273,1.1482868,0.025507983,-0.06867681,0.18561615,0.5737414,0.20941149,0.12912904,0.34674254,0.8664471,0.352437,0.31024718,0.38547885,0.7399434,0.64436585,0.2628272,0.45359716,0.5973416,733.1868,732.39026,699.4659,705.5729,676.9853,673.3565,661.40814,915.687,-0.1834716796875,0.014404296875,1.0465087890625,-4.418792724609375,-12.807769775390625,-19.447174072265625,5.567876403690724,5.856237274396205,4.172825024437928,3.893375295043273,0.0,0.0,0.0,0.0,0.0,0.0,0.0,0.0,0.0,0.0,0.0,0.0,66.55533,1,2.0,1.0,1.0,2.0,62.83
2026-01-24 06:27:58.186,,,,,,,,,,,,,,,,,,,,,,,,,,,,,,,,,,,,,,,,,,,,,,,,,,,,,,,,,,/muse/elements/jaw_clench
2026-01-24 06:27:58.450,,,,,,,,,,,,,,,,,,,,,,,,,,,,,,,,,,,,,,,,,,,,,,,,,,,,,,,,,,/muse/elements/jaw_clench
2026-01-24 06:27:58.697,,,,,,,,,,,,,,,,,,,,,,,,,,,,,,,,,,,,,,,,,,,,,,,,,,,,,,,,,,/muse/elements/jaw_clench
2026-01-24 06:27:58.963,0.4868014,0.62989205,0.32720628,0.8303607,0.42549047,0.22213143,0.091490395,0.069776155,0.47726348,0.3913915,0.39883775,0.37594673,0.91067976,0.6306625,0.56905305,0.86701214,0.9603529,0.57086074,0.654351,0.8818136,721.14996,726.9029,729.46954,735.57654,731.1512,733.6294,720.4419,981.0932,-0.2235107421875,0.0194091796875,0.99822998046875,1.652374267578125,1.65985107421875,-2.863616943359375,5.55432658608111,5.8536127601745225,4.156742245428319,3.886264692558949,0.0,0.0,0.0,0.0,0.0,0.0,0.0,0.0,0.0,0.0,0.0,0.0,69.031044,1,1.0,1.0,1.0,1.0,62.83
2026-01-24 06:27:59.546,,,,,,,,,,,,,,,,,,,,,,,,,,,,,,,,,,,,,,,,,,,,,,,,,,,,,,,,,,/muse/elements/blink
2026-01-24 06:27:59.975,0.3789949,0.62989205,0.37313035,0.9843444,0.39387953,0.22213143,0.092668466,0.12665348,0.3061308,0.3913915,0.3471709,0.329694,0.9476611,0.6306625,0.6395558,0.8827176,0.9969638,0.57086074,0.7432501,0.914511,736.9926,741.6835,755.579,721.94653,742.56854,748.4099,738.4087,1012.9555,-0.1680908203125,-0.31378173828125,0.88067626953125,30.168914794921875,5.151519775390625,28.239898681640625,5.547307536418472,5.8557184750733136,4.153812555134349,3.889682664568581,0.0,0.0,0.0,0.0,0.0,0.0,0.0,0.0,0.0,0.0,0.0,0.0,70.95998,1,1.0,1.0,1.0,1.0,62.83
2026-01-24 06:28:00.548,,,,,,,,,,,,,,,,,,,,,,,,,,,,,,,,,,,,,,,,,,,,,,,,,,,,,,,,,,/muse/elements/jaw_clench
2026-01-24 06:28:00.816,,,,,,,,,,,,,,,,,,,,,,,,,,,,,,,,,,,,,,,,,,,,,,,,,,,,,,,,,,/muse/elements/jaw_clench
2026-01-24 06:28:00.978,0.9303776,0.62989205,0.37313035,1.0585656,0.29827017,0.22213143,0.092668466,0.638438,0.49675417,0.3913915,0.3471709,0.64098024,0.5605494,0.6306625,0.6395558,0.90804785,0.6496941,0.57086074,0.7432501,0.819133,696.27966,991.1829,1018.17737,706.72345,959.5862,1041.0121,1046.2339,1449.292,0.190673828125,0.0592041015625,1.08050537109375,0.49346923828125,-4.628143310546875,-2.811279296875,5.555608325584722,5.8685969053238916,4.165958562811435,3.9027442004625326,0.0,0.0,0.0,0.0,0.0,0.0,0.0,0.0,0.0,0.0,0.0,0.0,71.62818,1,1.0,1.0,1.0,1.0,62.83
2026-01-24 06:28:01.992,0.94685537,0.62989205,0.37313035,1.1270288,0.26758516,0.22213143,0.092668466,0.63878506,0.5297752,0.3913915,0.3471709,0.7410095,0.55993414,0.6306625,0.6395558,0.91019917,0.6634564,0.57086074,0.7432501,0.8413123,738.3202,759.0307,744.2501,740.00183,744.7812,753.72034,754.7824,1126.4207,-0.20269775390625,0.18572998046875,0.9974365234375,9.966583251953125,-1.65985107421875,-22.871551513671875,5.580876904370217,5.884343990653983,4.197544286293303,3.925846029134778,0.0,0.0,0.0,0.0,0.0,0.0,0.0,0.0,0.0,0.0,0.0,0.0,71.926025,1,1.0,1.0,1.0,1.0,62.78
2026-01-24 06:28:03.003,0.90405506,0.62989205,0.37313035,1.0759768,0.17209041,0.22213143,0.092668466,0.9484481,0.49552974,0.3913915,0.3471709,1.123299,0.5783878,0.6306625,0.6395558,0.7537086,0.705233,0.57086074,0.7432501,0.616146,752.56976,729.11554,684.50836,747.25934,481.12067,434.21228,459.79065,719.7339,-0.16571044921875,-0.07989501953125,1.0506591796875,-24.890289306640625,-5.839385986328125,-46.199188232421875,5.607701881124383,5.914312280952721,4.232944710678779,3.9613380063419403,0.0,0.0,0.0,0.0,0.0,0.0,0.0,0.0,0.0,0.0,0.0,0.0,71.9067,1,1.0,1.0,1.0,1.0,62.78
2026-01-24 06:28:03.194,,,,,,,,,,,,,,,,,,,,,,,,,,,,,,,,,,,,,,,,,,,,,,,,,,,,,,,,,,/muse/elements/jaw_clench
2026-01-24 06:28:03.580,,,,,,,,,,,,,,,,,,,,,,,,,,,,,,,,,,,,,,,,,,,,,,,,,,,,,,,,,,/muse/elements/blink
2026-01-24 06:28:04.010,0.90405506,0.62989205,0.37313035,1.2448192,0.17209041,0.22213143,0.092668466,1.1417837,0.49552974,0.3913915,0.3471709,1.1990457,0.5783878,0.6306625,0.6395558,0.91732395,0.705233,0.57086074,0.7432501,0.7108721,734.77997,645.91956,645.56555,749.0295,700.9705,680.1715,673.7991,1150.3174,-0.15081787109375,0.05609130859375,0.9871826171875,2.355194091796875,6.639404296875,3.9776611328125,5.625463128531578,5.928167274634623,4.256839997138974,3.9782447607467275,0.0,0.0,0.0,0.0,0.0,0.0,0.0,0.0,0.0,0.0,0.0,0.0,68.60964,1,1.0,1.0,1.0,1.0,62.78
2026-01-24 06:28:04.944,,,,,,,,,,,,,,,,,,,,,,,,,,,,,,,,,,,,,,,,,,,,,,,,,,,,,,,,,,/muse/elements/blink
2026-01-24 06:28:05.018,0.90405506,0.62989205,0.37313035,1.1843048,0.17209041,0.22213143,0.092668466,1.1045108,0.49552974,0.3913915,0.3471709,1.1557333,0.5783878,0.6306625,0.6395558,0.9871488,0.705233,0.57086074,0.7432501,0.86029255,730.7087,722.9201,716.9017,739.7363,813.1081,831.78296,796.82294,1201.2971,-0.1795654296875,0.032470703125,1.03497314453125,-1.652374267578125,-5.151519775390625,9.37591552734375,5.59387740504971,5.890935793815416,4.2086526953246075,3.9328955964046446,0.0,0.0,0.0,0.0,0.0,0.0,0.0,0.0,0.0,0.0,0.0,0.0,67.31901,1,1.0,1.0,1.0,1.0,62.78
2026-01-24 06:28:06.024,0.90405506,0.62989205,0.37313035,1.1843048,0.17209041,0.22213143,0.092668466,1.1045108,0.49552974,0.3913915,0.3471709,1.1557333,0.5783878,0.6306625,0.6395558,0.9871488,0.705233,0.57086074,0.7432501,0.86029255,738.4087,734.69147,721.504,732.39026,493.60007,473.0666,519.7095,579.8938,-0.034912109375,0.21435546875,1.05657958984375,-18.91632080078125,-10.923614501953125,67.83706665039062,5.60269699353885,5.898656748444317,4.222965453114941,3.945224709725103,0.0,0.0,0.0,0.0,0.0,0.0,0.0,0.0,0.0,0.0,0.0,0.0,66.8214,1,1.0,1.0,1.0,1.0,62.78
2026-01-24 06:28:06.459,,,,,,,,,,,,,,,,,,,,,,,,,,,,,,,,,,,,,,,,,,,,,,,,,,,,,,,,,,/muse/elements/blink
2026-01-24 06:28:07.031,0.90405506,0.62989205,0.37313035,1.1843048,0.17209041,0.22213143,0.092668466,1.1045108,0.49552974,0.3913915,0.3471709,1.1557333,0.5783878,0.6306625,0.6395558,0.9871488,0.705233,0.57086074,0.7432501,0.86029255,714.24646,729.46954,728.05347,728.76154,749.82605,751.1536,758.32263,1268.4734,-0.093017578125,0.11505126953125,1.05224609375,10.96099853515625,15.47698974609375,-6.018829345703125,5.598119352454521,5.885991941444341,4.219059199389648,3.9347571704456046,0.0,0.0,0.0,0.0,0.0,0.0,0.0,0.0,0.0,0.0,0.0,0.0,66.8214,1,2.0,1.0,1.0,2.0,62.77
2026-01-24 06:28:07.705,,,,,,,,,,,,,,,,,,,,,,,,,,,,,,,,,,,,,,,,,,,,,,,,,,,,,,,,,,/muse/elements/blink
2026-01-24 06:28:08.035,0.90405506,0.62989205,0.37313035,1.1843048,0.17209041,0.22213143,0.092668466,1.1045108,0.49552974,0.3913915,0.3471709,1.1557333,0.5783878,0.6306625,0.6395558,0.9871488,0.705233,0.57086074,0.7432501,0.86029255,717.4327,727.3454,645.123,711.9453,664.8599,616.80096,619.8102,1030.7452,0.364990234375,0.0201416015625,1.0091552734375,7.10296630859375,-35.447540283203125,-14.415283203125,5.607061011372577,5.889562501490118,4.2347757671125095,3.9440345230431775,0.0,0.0,0.0,0.0,0.0,0.0,0.0,0.0,0.0,0.0,0.0,0.0,65.8314,1,2.0,1.0,1.0,2.0,62.77
2026-01-24 06:28:09.049,0.90405506,0.62989205,0.37313035,1.1843048,0.17209041,0.22213143,0.092668466,1.1045108,0.49552974,0.3913915,0.3471709,1.1557333,0.5783878,0.6306625,0.6395558,0.9871488,0.705233,0.57086074,0.7432501,0.86029255,707.9625,726.7259,695.3061,729.11554,721.76953,728.93854,726.1948,1223.5122,0.50457763671875,-0.018310546875,0.733154296875,-23.55194091796875,-18.609771728515625,15.252685546875,5.535558257635362,5.798101232625229,4.141574994635577,3.8446386762987865,0.0,0.0,0.0,0.0,0.0,0.0,0.0,0.0,0.0,0.0,0.0,0.0,65.513054,1,2.0,1.0,1.0,2.0,62.77
2026-01-24 06:28:09.807,,,,,,,,,,,,,,,,,,,,,,,,,,,,,,,,,,,,,,,,,,,,,,,,,,,,,,,,,,/muse/elements/blink
2026-01-24 06:28:10.051,0.90405506,0.62989205,0.37313035,1.1843048,0.17209041,0.22213143,0.092668466,1.1045108,0.49552974,0.3913915,0.3471709,1.1557333,0.5783878,0.6306625,0.6395558,0.9871488,0.705233,0.57086074,0.7432501,0.86029255,713.89246,663.0013,609.98596,719.3798,717.1672,704.8648,673.3565,1120.1367,-0.17584228515625,-0.59405517578125,0.74786376953125,4.403839111328125,-30.10162353515625,-60.18829345703125,5.480992775910164,5.752172233745798,4.0543556731755,3.7690770808001335,0.0,0.0,0.0,0.0,0.0,0.0,0.0,0.0,0.0,0.0,0.0,0.0,71.548256,1,2.0,1.0,1.0,2.0,62.77
2026-01-24 06:28:10.687,,,,,,,,,,,,,,,,,,,,,,,,,,,,,,,,,,,,,,,,,,,,,,,,,,,,,,,,,,/muse/elements/blink
2026-01-24 06:28:11.064,0.90405506,0.62989205,0.37313035,1.1843048,0.17209041,0.22213143,0.092668466,1.1045108,0.49552974,0.3913915,0.3471709,1.1557333,0.5783878,0.6306625,0.6395558,0.9871488,0.705233,0.57086074,0.7432501,0.86029255,741.5065,715.5741,702.3866,730.0006,775.31586,777.70557,793.10565,1285.8207,-0.05047607421875,0.0670166015625,1.04156494140625,-6.930999755859375,14.0863037109375,-3.99261474609375,5.539067782466681,5.803777507569797,4.098758791693489,3.806796843335002,0.0,0.0,0.0,0.0,0.0,0.0,0.0,0.0,0.0,0.0,0.0,0.0,74.63211,1,2.0,1.0,1.0,2.0,62.77
2026-01-24 06:28:12.067,0.90405506,0.62989205,0.37313035,1.1843048,0.17209041,0.22213143,0.092668466,1.1045108,0.49552974,0.3913915,0.3471709,1.1557333,0.5783878,0.6306625,0.6395558,0.9871488,0.705233,0.57086074,0.7432501,0.86029255,731.1512,729.5581,721.76953,738.85126,733.5409,738.67426,725.5753,1126.1552,-0.28460693359375,0.13885498046875,0.982666015625,10.347900390625,3.790740966796875,-1.547698974609375,5.629033688577355,5.902379896526238,4.208103378394488,3.9107398135564932,0.0,0.0,0.0,0.0,0.0,0.0,0.0,0.0,0.0,0.0,0.0,0.0,74.179955,1,2.0,1.0,1.0,2.0,62.77
2026-01-24 06:28:13.082,0.9378453,0.62989205,0.37313035,0.66410476,0.9574896,0.22213143,0.092668466,0.9639411,0.85008156,0.3913915,0.3471709,1.2148529,1.2220607,0.6306625,0.6395558,1.2700185,1.1982266,0.57086074,0.7432501,1.0771576,709.4671,703.80273,699.90845,708.1395,744.6927,738.76276,736.19604,1258.2067,-0.3099365234375,-0.01715087890625,0.9852294921875,0.366363525390625,-21.959381103515625,0.844879150390625,5.669377965333905,5.9373835920177385,4.260135898719691,3.9509925374913575,0.0,0.0,0.0,0.0,0.0,0.0,0.0,0.0,0.0,0.0,0.0,0.0,73.36966,1,1.0,1.0,1.0,1.0,62.74
2026-01-24 06:28:13.566,,,,,,,,,,,,,,,,,,,,,,,,,,,,,,,,,,,,,,,,,,,,,,,,,,,,,,,,,,/muse/elements/blink
2026-01-24 06:28:13.835,,,,,,,,,,,,,,,,,,,,,,,,,,,,,,,,,,,,,,,,,,,,,,,,,,,,,,,,,,/muse/elements/jaw_clench
2026-01-24 06:28:14.087,1.17111,0.62989205,0.37313035,0.81340474,1.0557379,0.22213143,0.092668466,0.75864637,0.70940536,0.3913915,0.3471709,0.4229558,0.6833765,0.6306625,0.6395558,0.5522762,0.6273254,0.57086074,0.7432501,0.6514578,731.68225,720.0879,718.31775,735.66504,748.3214,747.8789,727.61096,1325.9141,-0.47918701171875,0.00128173828125,0.95452880859375,11.222686767578125,10.564727783203125,-9.2413330078125,5.65561452447369,5.928472450706912,4.237858045442625,3.9369239205588538,0.0,0.0,0.0,0.0,0.0,0.0,0.0,0.0,0.0,0.0,0.0,0.0,72.98089,1,1.0,1.0,1.0,1.0,62.74
2026-01-24 06:28:14.205,,,,,,,,,,,,,,,,,,,,,,,,,,,,,,,,,,,,,,,,,,,,,,,,,,,,,,,,,,/muse/elements/blink
2026-01-24 06:28:15.098,1.17111,0.62989205,0.37313035,0.81340474,1.0557379,0.22213143,0.092668466,0.75864637,0.70940536,0.3913915,0.3471709,0.4229558,0.6833765,0.6306625,0.6395558,0.5522762,0.6273254,0.57086074,0.7432501,0.6514578,724.51324,717.60974,703.44867,711.7683,740.44434,737.6122,753.72034,1257.1447,-0.509521484375,-0.05517578125,0.955078125,-7.723541259765625,-1.966400146484375,-16.91253662109375,5.701085759244689,5.976568199699592,4.300510693083471,3.996219631404525,0.0,0.0,0.0,0.0,0.0,0.0,0.0,0.0,0.0,0.0,0.0,0.0,73.57791,1,1.0,1.0,1.0,1.0,62.74
2026-01-24 06:28:16.111,0.5836756,0.62989205,0.37313035,1.0183111,0.089023136,0.22213143,0.092668466,0.7590075,0.9051173,0.3913915,0.3471709,0.81466395,1.1831099,0.6306625,0.6395558,0.84059966,1.1504414,0.57086074,0.7432501,0.796942,725.48676,714.512,703.18317,710.52924,735.3995,734.69147,758.5882,1244.6652,-0.39593505859375,0.01153564453125,0.91851806640625,-10.654449462890625,-7.94036865234375,-5.540313720703125,5.730382662184393,6.000219345301957,4.346317621533987,4.031009703645424,0.0,0.0,0.0,0.0,0.0,0.0,0.0,0.0,0.0,0.0,0.0,0.0,74.24757,1,1.0,1.0,1.0,1.0,62.74
2026-01-24 06:28:16.835,,,,,,,,,,,,,,,,,,,,,,,,,,,,,,,,,,,,,,,,,,,,,,,,,,,,,,,,,,/muse/elements/blink
2026-01-24 06:28:17.113,0.8210016,0.62989205,0.24393809,0.849439,0.52931666,0.22213143,-0.09613313,0.90017116,0.96689224,0.3913915,0.45388186,0.7314784,1.046988,0.6306625,0.7317736,0.8051396,1.0057877,0.57086074,0.7918276,0.7633579,734.51447,725.30975,718.5833,735.57654,695.92566,695.3946,679.729,1206.3419,-0.3907470703125,-0.06378173828125,0.94049072265625,15.731201171875,-13.3087158203125,3.267364501953125,5.668889683618244,5.921178742579214,4.25400185966669,3.937717378346804,0.0,0.0,0.0,0.0,0.0,0.0,0.0,0.0,0.0,0.0,0.0,0.0,75.218956,1,1.0,1.0,1.0,1.0,62.74
2026-01-24 06:28:17.296,,,,,,,,,,,,,,,,,,,,,,,,,,,,,,,,,,,,,,,,,,,,,,,,,,,,,,,,,,/muse/elements/jaw_clench
2026-01-24 06:28:17.800,,,,,,,,,,,,,,,,,,,,,,,,,,,,,,,,,,,,,,,,,,,,,,,,,,,,,,,,,,/muse/elements/jaw_clench
2026-01-24 06:28:18.125,0.97359747,0.62989205,0.1643703,0.8908963,0.7434097,0.22213143,-0.16864136,0.948261,0.6923508,0.3913915,0.29694757,0.7102828,0.8476278,0.6306625,0.55432177,0.7522496,0.78735995,0.57086074,0.6160953,0.7018343,736.5501,718.31775,713.0074,731.1512,733.2753,728.05347,742.83405,1239.8859,-0.326904296875,0.04644775390625,0.94610595703125,0.52337646484375,-2.594451904296875,3.81317138671875,5.68076103283027,5.935918746870753,4.272220871182319,3.957767446296164,0.0,0.0,0.0,0.0,0.0,0.0,0.0,0.0,0.0,0.0,0.0,0.0,78.51745,1,1.0,1.0,1.0,1.0,62.72
2026-01-24 06:28:19.132,0.97359747,-0.026734056,0.0015789709,0.8908963,0.7434097,0.09247927,-0.07668335,0.948261,0.6923508,0.4277945,0.49865845,0.7102828,0.8476278,0.8855453,0.8864637,0.7522496,0.78735995,0.9874968,0.90068716,0.7018343,733.0098,715.6626,708.7591,742.303,747.7904,740.7099,754.42834,1256.879,-0.36541748046875,0.04437255859375,0.921142578125,-5.203857421875,0.500946044921875,7.050628662109375,5.68716973034833,5.937841356126171,4.287052428295544,3.967197386929881,0.0,0.0,0.0,0.0,0.0,0.0,0.0,0.0,0.0,0.0,0.0,0.0,80.51197,1,1.0,1.0,1.0,1.0,62.72
2026-01-24 06:28:19.577,,,,,,,,,,,,,,,,,,,,,,,,,,,,,,,,,,,,,,,,,,,,,,,,,,,,,,,,,,/muse/elements/jaw_clench
2026-01-24 06:28:19.815,,,,,,,,,,,,,,,,,,,,,,,,,,,,,,,,,,,,,,,,,,,,,,,,,,,,,,,,,,/muse/elements/jaw_clench
2026-01-24 06:28:20.083,,,,,,,,,,,,,,,,,,,,,,,,,,,,,,,,,,,,,,,,,,,,,,,,,,,,,,,,,,/muse/elements/jaw_clench
2026-01-24 06:28:20.139,0.97359747,0.1427536,-0.09244223,0.8908963,0.7434097,0.21062408,0.049069315,0.948261,0.6923508,0.5691887,0.5108615,0.7102828,0.8476278,0.85812587,0.8218697,0.7522496,0.78735995,0.89480215,0.9127881,0.7018343,736.19604,725.39825,722.30054,730.7087,615.3848,612.8182,602.81696,1012.513,-0.4129638671875,0.0113525390625,0.91943359375,-2.340240478515625,-0.31402587890625,-7.2674560546875,5.649236344562859,5.896245857473238,4.233555062823355,3.920627518298643,0.0,0.0,0.0,0.0,0.0,0.0,0.0,0.0,0.0,0.0,0.0,0.0,80.317474,1,2.0,1.0,1.0,2.0,62.72
2026-01-24 06:28:21.144,0.97359747,0.019542249,-0.06457525,0.034234013,0.7434097,-0.07313567,0.230583,0.29296753,0.6923508,0.63021535,0.617877,0.76523626,0.8476278,0.82088894,0.89272803,1.1083667,0.78735995,1.0292366,1.0104803,1.1776508,721.06146,715.6626,712.2993,723.3626,749.56055,739.6478,747.5249,1174.9221,-0.408447265625,-0.00439453125,0.935546875,-3.1402587890625,2.340240478515625,0.46356201171875,5.65778127458694,5.904851822711776,4.245914693751043,3.932712490761271,0.0,0.0,0.0,0.0,0.0,0.0,0.0,0.0,0.0,0.0,0.0,0.0,79.14406,1,1.0,1.0,1.0,1.0,62.72
2026-01-24 06:28:22.063,,,,,,,,,,,,,,,,,,,,,,,,,,,,,,,,,,,,,,,,,,,,,,,,,,,,,,,,,,/muse/elements/jaw_clench
2026-01-24 06:28:22.145,0.04283308,-0.25785822,-0.10543052,0.044139463,0.26625913,-0.16076507,0.12497413,0.32541424,0.783218,0.676709,0.646828,0.9467127,0.981009,0.8587726,0.8948577,1.0798311,1.0481826,0.97033715,0.97213453,1.1104511,713.89246,710.61774,721.94653,687.429,736.7271,731.85925,751.9502,1249.9756,-0.34283447265625,0.0716552734375,0.94921875,4.05242919921875,3.162689208984375,6.063690185546875,5.662908232601388,5.907537372147915,4.2576944901413825,3.940647068640774,0.0,0.0,0.0,0.0,0.0,0.0,0.0,0.0,0.0,0.0,0.0,0.0,78.25938,1,1.0,1.0,1.0,1.0,62.72
2026-01-24 06:28:22.298,,,,,,,,,,,,,,,,,,,,,,,,,,,,,,,,,,,,,,,,,,,,,,,,,,,,,,,,,,/muse/elements/jaw_clench
2026-01-24 06:28:23.157,0.13884884,-0.12079582,-0.100834444,0.015727647,0.27755013,-0.19048701,-0.14054267,0.15849353,0.6352465,0.51051587,0.58053344,0.86160594,1.0550222,0.90516824,0.90192187,1.0873247,1.0135576,0.91971433,0.91292053,1.0546975,740.17883,721.06146,728.14197,682.6497,767.1733,787.2642,791.07,1256.171,-0.541259765625,-0.01214599609375,0.85748291015625,3.820648193359375,4.807586669921875,-1.48040771484375,5.681371384974847,5.9220332355816225,4.287449157189519,3.963077509953985,0.0,0.0,0.0,0.0,0.0,0.0,0.0,0.0,0.0,0.0,0.0,0.0,76.45085,1,1.0,1.0,1.0,1.0,62.72
2026-01-24 06:28:23.209,,,,,,,,,,,,,,,,,,,,,,,,,,,,,,,,,,,,,,,,,,,,,,,,,,,,,,,,,,/muse/elements/jaw_clench
2026-01-24 06:28:24.161,0.2729567,-0.012838109,0.007545236,-0.018500911,0.19933586,-0.364244,-0.22879286,0.13206846,0.45696077,0.42798048,0.39684746,0.8069913,0.91773736,0.8257468,0.82385594,1.0687261,0.89055413,0.83737224,0.82917094,1.0255193,730.7972,726.1063,720.0879,757.8801,766.2882,761.6859,777.263,1286.9712,-0.49652099609375,0.04705810546875,0.88580322265625,8.73291015625,-13.151702880859375,14.66949462890625,5.637883794673724,5.874212145054002,4.22888586891734,3.9076575352263787,0.0,0.0,0.0,0.0,0.0,0.0,0.0,0.0,0.0,0.0,0.0,0.0,75.33978,1,1.0,1.0,1.0,1.0,62.70
2026-01-24 06:28:25.175,0.41277432,-0.012838109,0.007545236,-0.018500911,0.6864569,-0.364244,-0.22879286,0.13206846,0.52928114,0.42798048,0.39684746,0.8069913,1.059217,0.8257468,0.82385594,1.0687261,1.1653644,0.83737224,0.82917094,1.0255193,706.90045,724.3362,727.87646,738.2317,751.5077,747.43634,745.3122,1189.5258,-0.44158935546875,-0.00433349609375,0.91168212890625,0.22430419921875,4.3963623046875,10.42266845703125,5.634709963521923,5.870855208258828,4.230289678849868,3.907138735903488,0.0,0.0,0.0,0.0,0.0,0.0,0.0,0.0,0.0,0.0,0.0,0.0,75.14111,1,1.0,1.0,1.0,1.0,62.70
2026-01-24 06:28:25.209,,,,,,,,,,,,,,,,,,,,,,,,,,,,,,,,,,,,,,,,,,,,,,,,,,,,,,,,,,/muse/elements/jaw_clench
2026-01-24 06:28:25.956,,,,,,,,,,,,,,,,,,,,,,,,,,,,,,,,,,,,,,,,,,,,,,,,,,,,,,,,,,/muse/elements/jaw_clench
2026-01-24 06:28:26.188,0.5355902,0.17638555,0.28184077,-0.018500911,0.75432986,0.2617595,0.4379714,0.13206846,0.48304352,0.4743553,0.22293894,0.8069913,0.9846011,0.7379524,0.7048009,1.0687261,1.0772561,0.8375137,0.6210791,1.0255193,729.11554,716.8132,715.7511,738.58575,475.19073,467.4022,512.2749,544.4027,-0.39239501953125,-0.035888671875,0.939453125,2.4224853515625,-7.932891845703125,-4.0673828125,5.641851083613475,5.879827384784112,4.24679970436068,3.921359940872136,0.0,0.0,0.0,0.0,0.0,0.0,0.0,0.0,0.0,0.0,0.0,0.0,74.68166,1,1.0,1.0,1.0,1.0,62.70
2026-01-24 06:28:26.454,,,,,,,,,,,,,,,,,,,,,,,,,,,,,,,,,,,,,,,,,,,,,,,,,,,,,,,,,,/muse/elements/jaw_clench
2026-01-24 06:28:27.207,0.40048423,0.16417177,-0.052156255,0.2644233,0.56412286,0.1229914,0.0056567807,0.36805943,0.7815662,0.43452856,0.4119491,0.68657756,1.181588,0.87532896,0.972395,1.1243562,1.169238,0.91247344,1.0131297,1.1768546,734.3374,728.85004,721.504,727.52246,768.23535,778.3251,775.9354,1332.906,-0.37420654296875,-0.04644775390625,0.9559326171875,-1.77947998046875,-0.73272705078125,-5.345916748046875,5.609075173449682,5.845281453401045,4.205967145888468,3.8819922275469088,0.0,0.0,0.0,0.0,0.0,0.0,0.0,0.0,0.0,0.0,0.0,0.0,75.11303,1,1.0,1.0,1.0,1.0,62.70
2026-01-24 06:28:28.220,0.2071707,-0.2466579,-0.14938296,0.17421944,0.44413614,0.0048223166,4.456642E-4,0.25615805,0.8607366,0.572523,0.5857886,0.72857475,1.1275884,0.96102,0.97683364,1.1011903,1.1362164,1.0025251,1.041246,1.1864381,727.52246,728.85004,721.41547,719.9109,777.44,776.3779,777.70557,1343.6154,-0.36669921875,-0.0386962890625,0.94842529296875,0.37384033203125,-0.157012939453125,2.51220703125,5.6162162935412345,5.856695038504637,4.214817251984837,3.89212407314689,0.0,0.0,0.0,0.0,0.0,0.0,0.0,0.0,0.0,0.0,0.0,0.0,76.154495,1,1.0,1.0,1.0,1.0,62.70
2026-01-24 06:28:29.221,0.24772075,-0.43279225,-0.2730931,-0.03566034,0.4668715,-0.11339602,-0.20306589,0.08377282,0.7437198,0.58642143,0.54844695,0.69610167,0.93562895,0.7538924,0.7616305,0.9457725,1.1127464,0.94714975,0.9141909,1.0764377,723.5397,713.98096,713.2729,726.1063,530.2417,509.97375,550.06714,505.37143,-0.3770751953125,-0.03765869140625,0.9462890625,-1.562652587890625,0.11962890625,-3.768310546875,5.62515795245929,5.868352764466061,4.232761605035405,3.9087561690866175,0.0,0.0,0.0,0.0,0.0,0.0,0.0,0.0,0.0,0.0,0.0,0.0,76.4746,1,1.0,1.0,1.0,1.0,62.70
2026-01-24 06:28:30.234,0.6561998,-0.32697433,-0.32427022,0.47555608,0.395496,-0.28712374,-0.42156124,-0.04297921,0.6679064,0.5698991,0.47300163,0.65606457,0.68250376,0.5020458,0.5507447,0.71234477,0.9417717,0.7364283,0.64103127,0.8498408,735.488,730.0891,726.0178,735.66504,731.50525,734.3374,737.3466,1188.8176,-0.37518310546875,-0.0299072265625,0.952392578125,0.538330078125,-0.22430419921875,0.67291259765625,5.631902343656868,5.8747614619841215,4.244449848604058,3.9166602293588917,0.0,0.0,0.0,0.0,0.0,0.0,0.0,0.0,0.0,0.0,0.0,0.0,75.57786,1,1.0,1.0,1.0,1.0,62.67
2026-01-24 06:28:30.575,,,,,,,,,,,,,,,,,,,,,,,,,,,,,,,,,,,,,,,,,,,,,,,,,,,,,,,,,,/muse/elements/jaw_clench
2026-01-24 06:28:30.808,,,,,,,,,,,,,,,,,,,,,,,,,,,,,,,,,,,,,,,,,,,,,,,,,,,,,,,,,,/muse/elements/jaw_clench
2026-01-24 06:28:31.239,0.37718165,-0.43926057,-0.80590034,0.3533733,-0.19547065,-0.48623362,-0.48524377,-0.089572854,0.65886205,0.36508325,0.23145224,0.67236185,0.7503236,0.5224083,0.47594988,0.64159214,0.8757589,0.7179837,0.67294407,0.7526029,722.47754,715.39703,703.00616,725.39825,741.772,740.26733,737.0811,1168.1072,-0.38031005859375,-0.0277099609375,0.9378662109375,0.964508056640625,-1.2261962890625,-0.261688232421875,5.625981927854469,5.870458479364852,4.240452042057077,3.911807929809503,0.0,0.0,0.0,0.0,0.0,0.0,0.0,0.0,0.0,0.0,0.0,0.0,75.84226,1,1.0,1.0,1.0,1.0,62.67
2026-01-24 06:28:31.955,,,,,,,,,,,,,,,,,,,,,,,,,,,,,,,,,,,,,,,,,,,,,,,,,,,,,,,,,,/muse/elements/jaw_clench
2026-01-24 06:28:32.252,-0.1316262,-0.4150592,-0.399406,-0.12146842,0.21905456,-0.016870653,-0.23377061,0.13007891,0.79355305,0.41507995,0.2679509,0.7745896,0.9386726,0.7359892,0.71738654,0.9130045,1.0075154,0.8605538,0.84644383,0.91957915,742.65704,731.3282,721.85803,734.957,701.5016,702.74066,686.01294,1235.4606,-0.37432861328125,-0.02264404296875,0.94573974609375,0.13458251953125,-0.16448974609375,0.142059326171875,5.6174675154376175,5.8649042748492,4.233921274110102,3.9072302887251746,0.0,0.0,0.0,0.0,0.0,0.0,0.0,0.0,0.0,0.0,0.0,0.0,74.49622,1,1.0,1.0,1.0,1.0,62.67
2026-01-24 06:28:32.818,,,,,,,,,,,,,,,,,,,,,,,,,,,,,,,,,,,,,,,,,,,,,,,,,,,,,,,,,,/muse/elements/jaw_clench
2026-01-24 06:28:33.266,0.09657622,-0.53378576,-0.21662675,0.22794385,0.5033911,-0.064130194,-0.23282056,0.12849663,0.7252486,0.4302761,0.2564249,0.6188021,0.8110023,0.5700813,0.58507615,0.80608624,0.84612846,0.7286041,0.66317105,0.7711548,734.51447,728.14197,719.5569,731.68225,670.3473,666.276,646.5391,1152.707,-0.3638916015625,-0.0250244140625,0.9515380859375,0.059814453125,-0.9869384765625,-0.426177978515625,5.620702381803877,5.868200176429917,4.236454235510097,3.907321841546861,0.0,0.0,0.0,0.0,0.0,0.0,0.0,0.0,0.0,0.0,0.0,0.0,71.584274,1,1.0,1.0,1.0,1.0,62.67
2026-01-24 06:28:33.449,,,,,,,,,,,,,,,,,,,,,,,,,,,,,,,,,,,,,,,,,,,,,,,,,,,,,,,,,,/muse/elements/jaw_clench
2026-01-24 06:28:34.275,-0.1525614,-0.5448708,-0.45335704,-0.0056328094,0.13632418,-0.43088776,-0.29211769,-0.079003125,0.64696515,0.43269068,0.19067353,0.6561386,0.74535763,0.5322062,0.5147414,0.74246794,0.7510123,0.69756454,0.6386564,0.7470014,738.76276,723.8937,720.70746,739.7363,729.9121,730.9742,716.63617,1096.8595,-0.35577392578125,-0.02203369140625,0.95318603515625,-0.007476806640625,0.007476806640625,-0.28411865234375,5.622808096702668,5.872411606227499,4.241916887204063,3.9132422573492596,0.0,0.0,0.0,0.0,0.0,0.0,0.0,0.0,0.0,0.0,0.0,0.0,65.64384,1,1.0,1.0,1.0,1.0,62.67
2026-01-24 06:28:35.282,0.044090323,-0.27927333,-0.42240164,0.2429594,-0.1004347,-0.45104054,-0.37446114,0.14741702,0.6244319,0.34261924,0.12487393,0.71642333,0.72853076,0.48188755,0.5062853,0.6751897,0.66756344,0.5521398,0.5321386,0.68365425,743.8961,722.7431,718.40625,741.595,582.19495,571.7512,581.3099,907.72144,-0.37255859375,-0.02752685546875,0.95184326171875,-0.306549072265625,-1.368255615234375,-0.418701171875,5.631627685191808,5.878209951600982,4.258579500751019,3.9247473952745393,0.0,0.0,0.0,0.0,0.0,0.0,0.0,0.0,0.0,0.0,0.0,0.0,63.503857,1,1.0,1.0,1.0,1.0,62.64
2026-01-24 06:28:35.802,,,,,,,,,,,,,,,,,,,,,,,,,,,,,,,,,,,,,,,,,,,,,,,,,,,,,,,,,,/muse/elements/jaw_clench
2026-01-24 06:28:36.291,0.31858855,-0.46457636,-0.20688483,0.21403219,-0.007371651,-0.5056614,-0.37749928,-0.011244688,0.4310966,0.014805038,0.030480469,0.38213125,0.5093544,0.25374058,0.32713196,0.48572195,0.5602025,0.41120932,0.39234012,0.5015824,731.3282,723.5397,715.30853,729.6466,543.07513,525.6394,538.2073,790.00793,-0.36602783203125,-0.03607177734375,0.9539794921875,0.97198486328125,-0.059814453125,-0.418701171875,5.595159144553322,5.836797558591422,4.206546980425816,3.876804234318003,0.0,0.0,0.0,0.0,0.0,0.0,0.0,0.0,0.0,0.0,0.0,0.0,63.79081,1,1.0,1.0,1.0,1.0,62.64
2026-01-24 06:28:37.296,0.14721437,-0.9145956,-0.3175139,-0.007507678,-0.03179543,-0.87499315,-0.38701823,-0.10091591,0.43106285,-0.023032794,-0.04716024,0.34633532,0.4047294,0.28842738,0.26811415,0.42610547,0.46152762,0.38644198,0.33524284,0.4801406,725.9293,714.06946,718.22925,732.39026,737.7007,744.4271,751.4191,1219.9719,-0.3636474609375,-0.02520751953125,0.95281982421875,-0.299072265625,-0.291595458984375,-0.9869384765625,5.634313234627948,5.881383782752784,4.26388956440884,3.928531578570918,0.0,0.0,0.0,0.0,0.0,0.0,0.0,0.0,0.0,0.0,0.0,0.0,63.956753,1,1.0,1.0,1.0,1.0,62.64
2026-01-24 06:28:38.299,-0.29140413,-0.5673723,-0.53648525,-0.025714785,-0.052138194,-0.72671443,-0.42500815,-0.010200152,0.47462696,0.3795564,0.1592977,0.4580563,0.58377993,0.49523535,0.48558953,0.63809675,0.63715565,0.51070184,0.51645076,0.65136683,729.8236,718.31775,718.05225,727.3454,497.7599,485.10345,524.66583,622.5539,-0.35894775390625,-0.03363037109375,0.94586181640625,0.037384033203125,-1.42059326171875,-0.2392578125,5.615880599861717,5.857946260401021,4.244541401425744,3.905368714684214,0.0,0.0,0.0,0.0,0.0,0.0,0.0,0.0,0.0,0.0,0.0,0.0,62.660076,1,1.0,1.0,1.0,1.0,62.64
2026-01-24 06:28:39.318,-0.042350788,-0.62943393,-0.36917263,0.1301487,-0.09637614,-0.4952942,-0.34073323,0.18057455,0.5720428,0.3795564,0.17942618,0.47463542,0.6091292,0.51657796,0.45475665,0.638133,0.660626,0.5213877,0.4948367,0.6569728,726.0178,721.32697,717.78674,727.61096,791.5126,782.9274,761.42035,1201.9166,-0.373046875,-0.02392578125,0.94610595703125,-0.1495361328125,-0.52337646484375,0.037384033203125,5.582158643873829,5.823674987483012,4.1982461912595666,3.866947047183082,0.0,0.0,0.0,0.0,0.0,0.0,0.0,0.0,0.0,0.0,0.0,0.0,60.82092,1,1.0,1.0,1.0,1.0,62.64
2026-01-24 06:28:40.324,0.18819138,-0.45299622,-0.71684134,-0.36077535,-0.06089231,-0.6129694,-0.5626349,-0.05778393,0.32856327,-0.12828888,-0.16751343,0.23511206,0.3395205,0.09720397,0.0044885497,0.3363085,0.31713408,0.21188778,0.11538363,0.33005214,713.80396,715.13153,710.52924,713.98096,750.18005,751.3306,754.07434,1154.9197,-0.3792724609375,-0.0267333984375,0.94696044921875,0.59814453125,0.11962890625,-0.11962890625,5.618901842977374,5.8571222850058415,4.249515771404049,3.9055213027203584,0.0,0.0,0.0,0.0,0.0,0.0,0.0,0.0,0.0,0.0,0.0,0.0,60.335533,1,1.0,1.0,1.0,1.0,62.64
2026-01-24 06:28:41.334,-0.32136005,-0.50289994,-0.30847067,0.13630863,0.02093145,-0.6965949,-0.44215193,0.08080625,0.14623906,-0.40546405,-0.21818706,0.29380897,0.24717772,0.007254987,0.022377918,0.26471207,0.1798794,0.08932667,0.030275712,0.20521739,719.7339,712.2993,711.06024,718.9373,755.2249,749.64905,752.1272,1256.879,-0.36846923828125,-0.01824951171875,0.95086669921875,0.456085205078125,-1.8243408203125,0.58319091796875,5.592198936652123,5.829046086355292,4.216831414061941,3.8790625372529384,0.0,0.0,0.0,0.0,0.0,0.0,0.0,0.0,0.0,0.0,0.0,0.0,60.007748,1,1.0,1.0,1.0,1.0,62.63
2026-01-24 06:28:42.337,-0.17052457,-0.6110612,-0.36354494,0.05054358,0.04985437,-0.55652153,-0.7192199,-0.13299939,0.63784355,-0.043008037,0.028081276,0.4795783,0.2098449,0.021477716,-0.097497225,0.27590138,0.1801021,0.06979185,-0.0044897716,0.1766001,718.31775,710.88324,712.1223,722.8316,735.488,733.45233,735.57654,1124.031,-0.36651611328125,-0.02154541015625,0.94940185546875,0.037384033203125,-0.949554443359375,0.545806884765625,5.562505304818444,5.799566077772215,4.175754714731898,3.842990725508428,0.0,0.0,0.0,0.0,0.0,0.0,0.0,0.0,0.0,0.0,0.0,0.0,59.60824,1,1.0,1.0,1.0,1.0,62.63
2026-01-24 06:28:43.342,0.09126776,-0.66917604,-0.65686536,-0.35353264,0.2821252,-0.36185044,-0.36523044,-0.28194267,0.7345969,0.16839357,0.27625123,0.57144207,0.60451484,0.4677666,0.4212122,0.60788727,0.621566,0.50703263,0.4533022,0.55919844,715.9281,716.3706,711.14874,725.04425,539.26935,525.8164,560.24536,540.1544,-0.3724365234375,-0.0291748046875,0.95294189453125,0.441131591796875,0.082244873046875,-0.874786376953125,5.557347829196767,5.793920320434876,4.172947094866843,3.839542235891567,0.0,0.0,0.0,0.0,0.0,0.0,0.0,0.0,0.0,0.0,0.0,0.0,60.59083,1,1.0,1.0,1.0,1.0,62.63
2026-01-24 06:28:44.354,-0.05877038,-0.5843905,-0.74668664,-0.22677359,-0.053326998,-0.43406177,-0.36801222,-0.19748545,0.5352396,0.14680634,0.26781064,0.3708098,0.6955902,0.54848903,0.5065736,0.6450762,0.7131851,0.5701144,0.5130597,0.59122425,736.8156,734.4259,729.9121,740.7099,728.76154,733.8949,722.21204,1124.031,-0.36505126953125,-0.01776123046875,0.948974609375,-0.007476806640625,-1.8243408203125,0.635528564453125,5.554967455832916,5.791784087928856,4.170231027823474,3.835208735665069,0.0,0.0,0.0,0.0,0.0,0.0,0.0,0.0,0.0,0.0,0.0,0.0,61.87557,1,1.0,1.0,1.0,1.0,62.63
2026-01-24 06:28:45.370,-0.06554531,-0.6145062,-1.0428835,-0.24580024,-0.106984586,-0.4082148,-0.50193673,0.0036837342,0.49562573,0.35753596,0.25519392,0.5943557,0.70721096,0.47495833,0.4742808,0.65961087,0.62611187,0.4886848,0.47606176,0.62569064,720.53046,712.5649,707.7855,720.88446,598.56866,598.0376,629.9884,682.7382,-0.36749267578125,-0.02764892578125,0.95074462890625,0.605621337890625,-1.428070068359375,0.740203857421875,5.580052928975038,5.815404715923992,4.210117540471592,3.8667639415397086,0.0,0.0,0.0,0.0,0.0,0.0,0.0,0.0,0.0,0.0,0.0,0.0,61.19199,1,1.0,1.0,1.0,1.0,62.63
2026-01-24 06:28:46.378,0.30000922,-0.55963624,-0.51852584,-0.008171974,0.26745957,-0.021574676,-0.061089184,0.16255769,0.76337355,0.6419911,0.45351344,0.72337544,0.8884505,0.7205744,0.748104,0.8831427,0.93385357,0.83040446,0.8174621,0.9241417,719.7339,710.88324,705.9269,720.4419,730.8857,726.1063,723.5397,1157.1324,-0.3726806640625,-0.03643798828125,0.94647216796875,0.082244873046875,-0.52337646484375,0.216827392578125,5.553807786758219,5.794439119757767,4.176883866199366,3.8409460458240945,0.0,0.0,0.0,0.0,0.0,0.0,0.0,0.0,0.0,0.0,0.0,0.0,59.31807,1,1.0,1.0,1.0,1.0,62.63
2026-01-24 06:28:47.386,0.14372092,-0.33377233,-0.6946573,-0.2753986,0.31660107,0.016813304,0.019471493,0.23888603,0.7581087,0.6055102,0.5705306,0.704593,0.9361021,0.791602,0.81826705,0.9287716,1.0208654,0.8925933,0.83824533,0.9679315,716.2821,712.9189,707.16595,717.0787,750.09155,747.43634,761.8629,1257.9412,-0.37615966796875,-0.0322265625,0.9447021484375,0.859832763671875,-0.55328369140625,0.418701171875,5.61020432491715,5.854558805998617,4.253788236416089,3.9089087571227616,0.0,0.0,0.0,0.0,0.0,0.0,0.0,0.0,0.0,0.0,0.0,0.0,58.626118,1,1.0,1.0,1.0,1.0,62.62
2026-01-24 06:28:48.398,-0.049458526,-0.4587018,-0.5305836,0.06583388,0.19327301,-0.10025452,-0.057325117,0.2654063,0.6578484,0.41162223,0.48779598,0.68049055,0.90155154,0.7560564,0.74803424,0.9315476,0.92335844,0.7950912,0.7424981,0.89673233,725.5753,716.3706,712.2993,727.1684,713.53845,708.3165,708.1395,951.6206,-0.3662109375,-0.02056884765625,0.9498291015625,-0.112152099609375,-0.22430419921875,-0.171966552734375,5.603429416112343,5.8479670028371835,4.24786782061369,3.9032324821781943,0.0,0.0,0.0,0.0,0.0,0.0,0.0,0.0,0.0,0.0,0.0,0.0,58.267162,1,1.0,1.0,1.0,1.0,62.62
2026-01-24 06:28:49.417,0.27841976,-0.395071,-0.15998845,0.3910444,0.38776943,-0.054119784,-0.024717052,0.34368896,0.8379111,0.5656298,0.4550281,0.6873351,0.99691266,0.8464586,0.8433367,1.0244055,1.0168905,0.8702649,0.8319237,0.9917134,740.6214,734.60297,729.7351,744.5157,732.6558,742.92255,731.3282,1103.586,-0.37451171875,-0.02838134765625,0.955322265625,-0.31402587890625,0.037384033203125,-0.34393310546875,5.601995088572586,5.84647164008297,4.245487447249839,3.900730038385428,0.0,0.0,0.0,0.0,0.0,0.0,0.0,0.0,0.0,0.0,0.0,0.0,57.899536,1,1.0,1.0,1.0,1.0,62.62
2026-01-24 06:28:50.440,0.17903323,-0.48045158,-0.35647556,0.24839668,0.31701136,-0.12316554,-0.26743606,0.17106229,0.7461634,0.5149675,0.43910727,0.62875843,0.99571615,0.81727666,0.81730616,0.9769957,0.93874216,0.8241119,0.8448952,0.9437946,707.16595,702.0326,692.4739,701.3245,750.7996,754.33984,758.5882,1450.0,-0.373291015625,-0.0286865234375,0.94915771484375,0.770111083984375,0.201873779296875,-0.0897216796875,5.5774284147533555,5.813482106668574,4.214420523090862,3.867557399327659,0.0,0.0,0.0,0.0,0.0,0.0,0.0,0.0,0.0,0.0,0.0,0.0,57.946075,1,1.0,1.0,1.0,1.0,62.62
2026-01-24 06:28:51.448,0.012442398,-0.5452783,-0.21870293,0.085407145,0.19724691,-0.18698625,-0.15111566,0.24863292,0.76065767,0.44787022,0.5250778,0.74827623,0.9279768,0.7437881,0.7574428,0.928623,0.8561735,0.7554798,0.7441038,0.883515,731.0627,725.13275,720.3534,736.46155,792.57465,786.9102,803.0184,1411.9423,-0.37969970703125,-0.02740478515625,0.943603515625,0.261688232421875,-0.381317138671875,0.426177978515625,5.613378156068951,5.8569391793624686,4.262882483370288,3.916141430036001,0.0,0.0,0.0,0.0,0.0,0.0,0.0,0.0,0.0,0.0,0.0,0.0,58.351727,1,1.0,1.0,1.0,1.0,62.60
2026-01-24 06:28:52.461,0.08358033,-0.72475106,-0.12531865,0.17625438,0.18932791,-0.17939933,-0.19897223,-0.016936855,0.6875395,0.48306754,0.52068865,0.7380138,0.96735024,0.833115,0.8568729,1.0099602,0.93126017,0.81729895,0.80585176,0.9611568,726.3718,716.54767,715.6626,723.5397,798.5931,782.6619,798.9471,1449.469,-0.3790283203125,-0.037841796875,0.948974609375,0.299072265625,0.052337646484375,-0.01495361328125,5.613500226497866,5.858434542116682,4.265659585628114,3.918338697756479,0.0,0.0,0.0,0.0,0.0,0.0,0.0,0.0,0.0,0.0,0.0,0.0,58.680225,1,1.0,1.0,1.0,1.0,62.60
2026-01-24 06:28:53.469,-0.22942288,-0.7723964,-0.35772714,-0.1372213,0.012808166,-0.24373272,-0.1593194,0.10007518,0.54282427,0.53446513,0.588836,0.7709283,0.96431965,0.7909342,0.8287172,0.98657745,1.0141917,0.87066495,0.86104846,1.0041919,731.59375,726.2833,720.0879,728.93854,838.50946,836.20825,835.67725,1450.0,-0.37841796875,-0.03436279296875,0.94683837890625,0.07476806640625,-0.76263427734375,-0.2093505859375,5.598302458097895,5.837468945950457,4.2472879860763415,3.896884819874592,0.0,0.0,0.0,0.0,0.0,0.0,0.0,0.0,0.0,0.0,0.0,0.0,58.42794,1,1.0,1.0,1.0,1.0,62.60
2026-01-24 06:28:54.479,-0.2753339,-0.4157726,-0.5133416,-0.22924395,0.06261772,-0.37763226,-0.32293457,-0.061992295,0.6319008,0.41938758,0.40644717,0.610497,0.8621065,0.7090321,0.70846397,0.89055747,0.87214136,0.73996097,0.7093992,0.85615665,726.1063,721.94653,718.7603,734.51447,796.02637,801.9563,815.6748,1450.0,-0.3736572265625,-0.02435302734375,0.94976806640625,-0.10467529296875,-1.6448974609375,-0.179443359375,5.5458426912714875,5.782140524044537,4.175724197124669,3.835483394130129,0.0,0.0,0.0,0.0,0.0,0.0,0.0,0.0,0.0,0.0,0.0,0.0,58.29785,1,1.0,1.0,1.0,1.0,62.60
2026-01-24 06:28:55.488,-0.19751467,-0.5229523,-0.4844805,0.06684551,0.1908142,-0.24549437,-0.31583545,0.21665186,0.6267757,0.44027877,0.46240827,0.4938858,0.91764015,0.767606,0.7790744,0.9208485,0.8874158,0.75995964,0.7480896,0.87346435,731.77075,726.8144,722.03503,734.1604,791.424,784.8746,797.6195,1448.8494,-0.3720703125,-0.02496337890625,0.94696044921875,0.097198486328125,-1.62994384765625,0.635528564453125,5.531865627160671,5.767125861287939,4.159031065970484,3.8174474882578737,0.0,0.0,0.0,0.0,0.0,0.0,0.0,0.0,0.0,0.0,0.0,0.0,60.04963,1,1.0,1.0,1.0,1.0,62.60
2026-01-24 06:28:56.490,0.254574,-0.42813545,-0.37359852,0.15675537,0.3652638,-0.0918861,-0.13523377,0.293555,0.7775228,0.49318025,0.5290691,0.6390474,1.0041666,0.82473755,0.88558847,0.98910564,1.0445424,0.9228999,0.9057367,1.0585098,726.1948,723.8937,720.97296,732.6558,834.2611,822.40125,822.48975,1450.0,-0.370361328125,-0.02813720703125,0.95159912109375,0.231781005859375,-1.256103515625,0.299072265625,5.516850964404072,5.75372863171447,4.136203895763297,3.7972753498795986,0.0,0.0,0.0,0.0,0.0,0.0,0.0,0.0,0.0,0.0,0.0,0.0,60.87062,1,1.0,1.0,1.0,1.0,62.60
2026-01-24 06:28:56.791,,,,,,,,,,,,,,,,,,,,,,,,,,,,,,,,,,,,,,,,,,,,,,,,,,,,,,,,,,/muse/elements/jaw_clench
2026-01-24 06:28:57.497,0.24491893,-0.42466843,-0.4456173,-0.0668519,0.20816581,-0.25852054,-0.2209524,-0.027252564,0.7788854,0.4348855,0.40818095,0.6192742,0.7967299,0.5987684,0.6175538,0.76243645,0.91865903,0.7934999,0.768198,0.9164317,714.06946,712.2993,711.23724,717.96375,792.66315,802.8414,828.86224,1450.0,-0.368896484375,-0.03131103515625,0.95379638671875,0.07476806640625,-0.979461669921875,-0.620574951171875,5.506810671625778,5.7432916100422,4.1252480747681375,3.7874181627446775,0.0,0.0,0.0,0.0,0.0,0.0,0.0,0.0,0.0,0.0,0.0,0.0,61.301727,1,1.0,1.0,1.0,1.0,62.57
2026-01-24 06:28:58.505,-0.06257455,-0.3095079,-0.30955926,-0.27669954,-0.20380588,-0.35015622,-0.24076131,0.075024016,0.62999433,0.44298,0.42762727,0.6437708,0.91591585,0.7310946,0.6760799,0.87419665,0.9442109,0.8099097,0.77968574,0.94184935,738.2317,727.1684,719.2913,728.14197,768.05835,778.94464,776.555,1450.0,-0.38006591796875,-0.0289306640625,0.94622802734375,-0.01495361328125,-1.338348388671875,0.560760498046875,5.497197625348687,5.738652933743413,4.111850845194669,3.7768285530362635,0.0,0.0,0.0,0.0,0.0,0.0,0.0,0.0,0.0,0.0,0.0,0.0,61.609,1,1.0,1.0,1.0,1.0,62.57
2026-01-24 06:28:59.506,-0.09464735,-0.4569673,-0.43061277,-0.2518811,-0.10964523,-0.33059683,-0.26980227,-0.090456456,0.5688509,0.2345867,0.34791923,0.50699705,0.77076554,0.5846378,0.5479382,0.77323526,0.7683979,0.6105073,0.5621727,0.7744853,736.10754,722.7431,720.79596,734.60297,748.587,749.295,756.99506,1450.0,-0.37872314453125,-0.02734375,0.94287109375,0.231781005859375,-1.502838134765625,0.37384033203125,5.506291872302887,5.751073599885559,4.1261330853777745,3.78921870157118,0.0,0.0,0.0,0.0,0.0,0.0,0.0,0.0,0.0,0.0,0.0,0.0,60.873512,1,1.0,1.0,1.0,1.0,62.57
2026-01-24 06:29:00.518,-0.068829454,-0.49240276,-0.61028516,0.04096348,-0.04320726,-0.40275332,-0.3855237,-0.29282087,0.4481392,0.095883265,0.061702833,0.47149318,0.6907372,0.4637544,0.43945935,0.6785079,0.67736137,0.5136041,0.5070873,0.6773358,734.1604,730.0891,721.681,732.30176,778.59064,785.4056,787.9723,1448.9379,-0.38043212890625,-0.032470703125,0.9481201171875,0.426177978515625,-0.097198486328125,0.186920166015625,5.494084829411344,5.741246930357867,4.10058984812722,3.7684667286555564,0.0,0.0,0.0,0.0,0.0,0.0,0.0,0.0,0.0,0.0,0.0,0.0,59.589912,1,1.0,1.0,1.0,1.0,62.57
2026-01-24 06:29:00.535,,,,,,,,,,,,,,,,,,,,,,,,,,,,,,,,,,,,,,,,,,,,,,,,,,,,,,,,,,/muse/elements/jaw_clench
2026-01-24 06:29:01.526,0.1640523,-0.5994264,-0.49413607,0.24238566,-0.07356202,-0.49483326,-0.44966167,-0.19013275,0.5669657,0.13763936,0.28043753,0.661365,0.72897047,0.45670897,0.4440431,0.7605901,0.723266,0.56058156,0.54550254,0.7326905,735.0455,726.5489,723.5397,731.4167,674.86115,656.62885,678.31287,1317.7715,-0.37750244140625,-0.03143310546875,0.948486328125,0.0299072265625,-0.904693603515625,-0.7476806640625,5.489995470042677,5.737096535774742,4.093509763250125,3.763614429106168,0.0,0.0,0.0,0.0,0.0,0.0,0.0,0.0,0.0,0.0,0.0,0.0,59.347656,1,1.0,1.0,1.0,1.0,62.57
2026-01-24 06:29:01.683,,,,,,,,,,,,,,,,,,,,,,,,,,,,,,,,,,,,,,,,,,,,,,,,,,,,,,,,,,/muse/elements/jaw_clench
2026-01-24 06:29:02.532,-0.05407655,-0.66054374,-0.94222414,-0.35481924,-0.3431412,-0.5032046,-0.67817336,-0.13637364,0.5342312,0.10634162,0.15082355,0.5886592,0.6149372,0.42586198,0.3638354,0.6147556,0.5430647,0.4576295,0.41237628,0.5932405,727.4339,722.5661,722.9201,727.0799,758.9422,763.89856,781.0688,1413.7124,-0.376708984375,-0.02862548828125,0.9512939453125,-0.022430419921875,-1.143951416015625,-0.478515625,5.492833607514961,5.742467634647021,4.097080323295901,3.7665136017929095,0.0,0.0,0.0,0.0,0.0,0.0,0.0,0.0,0.0,0.0,0.0,0.0,60.814327,1,1.0,1.0,1.0,1.0,62.56
2026-01-24 06:29:03.543,-0.5555467,-0.6629207,-0.93315905,-0.4513804,-0.41828898,-0.57303655,-0.6929773,-0.26200697,0.317841,-0.11727801,-0.09418757,0.36990902,0.45068887,0.2890508,0.2476425,0.4609138,0.40274844,0.293064,0.33003134,0.511199,724.77875,721.76953,718.5833,730.7087,758.5882,760.4468,778.2366,1416.102,-0.380859375,-0.03289794921875,0.94659423828125,0.007476806640625,-0.142059326171875,0.082244873046875,5.493535512481224,5.743230574827742,4.09418115060916,3.764835133395322,0.0,0.0,0.0,0.0,0.0,0.0,0.0,0.0,0.0,0.0,0.0,0.0,61.04594,1,1.0,1.0,1.0,1.0,62.56
2026-01-24 06:29:03.809,,,,,,,,,,,,,,,,,,,,,,,,,,,,,,,,,,,,,,,,,,,,,,,,,,,,,,,,,,/muse/elements/jaw_clench
2026-01-24 06:29:04.550,-0.09632797,-0.72910184,-0.9573403,-0.39522815,-0.25074837,-0.5727007,-0.46315384,-0.2972247,0.6356203,0.2514835,0.21061285,0.43647194,0.53921413,0.35879922,0.41026983,0.5769863,0.48483464,0.3798718,0.3843852,0.5700839,723.0971,721.76953,717.78674,723.2741,752.3927,760.53534,757.7916,1316.0013,-0.38336181640625,-0.03125,0.9434814453125,0.201873779296875,0.216827392578125,0.2392578125,5.497502801420976,5.747228381374723,4.096347900722409,3.7662694609350784,0.0,0.0,0.0,0.0,0.0,0.0,0.0,0.0,0.0,0.0,0.0,0.0,60.21515,1,1.0,1.0,1.0,1.0,62.56
2026-01-24 06:29:05.561,0.08765871,-0.4979016,-0.44838125,-0.059255432,-0.053585537,-0.42864165,-0.27010554,0.054882575,0.6329935,0.28661165,0.21961005,0.38973588,0.65519595,0.47720817,0.5373716,0.6781912,0.6085001,0.4344104,0.40870747,0.6480778,727.69946,723.8937,718.40625,729.5581,504.7519,490.41385,502.98175,637.6885,-0.38299560546875,-0.0306396484375,0.9443359375,0.22430419921875,-0.530853271484375,0.291595458984375,5.492986195551105,5.741307965572324,4.08377464654412,3.756442791407386,0.0,0.0,0.0,0.0,0.0,0.0,0.0,0.0,0.0,0.0,0.0,0.0,60.284256,1,1.0,1.0,1.0,1.0,62.56
2026-01-24 06:29:06.575,-0.066887535,-0.65223825,-0.30892694,-0.17965868,0.042666428,-0.261587,-0.23287654,0.16498794,0.719266,0.4639606,0.36546645,0.67415345,0.729221,0.5700994,0.56640553,0.7832156,0.7743041,0.56842864,0.6028466,0.7757304,718.7603,714.6005,713.0959,719.8224,761.15485,755.3134,751.7732,1312.3726,-0.37982177734375,-0.033203125,0.94244384765625,0.11962890625,-0.680389404296875,0.082244873046875,5.490605822187254,5.742040388145817,4.079624251960995,3.754520182151968,0.0,0.0,0.0,0.0,0.0,0.0,0.0,0.0,0.0,0.0,0.0,0.0,61.51433,1,1.0,1.0,1.0,1.0,62.56
2026-01-24 06:29:07.591,-0.11985312,-0.38038754,-0.5649562,-0.19392154,0.08563674,-0.13173121,-0.1822945,0.107155554,0.7280955,0.49271086,0.43478146,0.6897511,0.9097276,0.7586864,0.7708419,0.93914884,0.9048057,0.7403936,0.77737087,0.93557453,735.84204,734.1604,729.9121,733.8064,760.0928,766.0227,739.8248,1280.0677,-0.3804931640625,-0.03228759765625,0.94927978515625,0.19439697265625,-0.097198486328125,0.16448974609375,5.488255966430632,5.743413680471115,4.07574851584293,3.7542455236869086,0.0,0.0,0.0,0.0,0.0,0.0,0.0,0.0,0.0,0.0,0.0,0.0,62.164894,1,1.0,1.0,1.0,1.0,62.56
2026-01-24 06:29:08.599,0.12283916,-0.3650852,-0.5575536,0.11201709,-0.20453689,-0.41069648,-0.32359782,-0.21576543,0.41708055,0.19852549,0.23386829,0.30033562,0.60930175,0.44957578,0.50328225,0.7326288,0.5666512,0.42836672,0.38606715,0.59321153,724.0707,720.3534,714.24646,724.1592,518.47034,501.1231,538.91534,576.7076,-0.38299560546875,-0.02801513671875,0.94207763671875,-0.04486083984375,-0.336456298828125,0.022430419921875,5.486028181102926,5.74622130033617,4.0693398183248695,3.751773597501371,0.0,0.0,0.0,0.0,0.0,0.0,0.0,0.0,0.0,0.0,0.0,0.0,63.0331,1,1.0,1.0,1.0,1.0,62.52
2026-01-24 06:29:09.608,0.008032299,-0.46694058,-0.6694615,-0.22531854,-0.1507079,-0.59061253,-0.7851631,-0.41344035,0.22468828,-0.24844635,-0.19189546,0.2037191,0.12958848,-0.03231157,-0.030904787,0.2947447,0.044641927,-0.004923438,-0.08306704,0.05620337,715.7511,708.9361,707.6085,719.2913,751.8617,746.28577,743.9846,1336.6233,-0.38702392578125,-0.03277587890625,0.94683837890625,0.112152099609375,-0.157012939453125,-0.34393310546875,5.479619483584865,5.743077986791598,4.057773645185132,3.7471044035953556,0.0,0.0,0.0,0.0,0.0,0.0,0.0,0.0,0.0,0.0,0.0,0.0,64.51625,1,1.0,1.0,1.0,1.0,62.52
2026-01-24 06:29:10.628,-0.09816576,-0.60223997,-0.5382328,0.1969972,0.057140995,-0.5671771,-0.5164612,0.28339782,0.57531756,0.26179248,0.23698722,0.62917906,0.57277036,0.38059214,0.3489925,0.6236329,0.67213124,0.513682,0.50254464,0.74974424,722.38904,712.5649,712.6534,728.496,598.92267,588.1249,591.3996,707.697,-0.37890625,-0.03692626953125,0.94744873046875,-0.04486083984375,-0.2392578125,-0.85235595703125,5.477574803900532,5.745519395369906,4.047092482655032,3.7434117731206635,0.0,0.0,0.0,0.0,0.0,0.0,0.0,0.0,0.0,0.0,0.0,0.0,65.02562,1,1.0,1.0,1.0,1.0,62.52
2026-01-24 06:29:11.636,-0.029246703,-0.45590517,-0.4791572,0.049994864,-0.027739272,-0.49373227,-0.3675162,0.34817055,0.71145225,0.0095829265,0.21358187,0.6930079,0.75953376,0.57823384,0.56724006,0.77004033,0.73040855,0.5515169,0.5419403,0.7410479,725.30975,711.7683,708.405,722.38904,752.2157,745.3122,728.4075,1247.4089,-0.383544921875,-0.0360107421875,0.94708251953125,0.261688232421875,-0.755157470703125,-0.321502685546875,5.50354528765229,5.772222301695158,4.0726967551200435,3.767246024366402,0.0,0.0,0.0,0.0,0.0,0.0,0.0,0.0,0.0,0.0,0.0,0.0,63.01362,1,1.0,1.0,1.0,1.0,62.52
2026-01-24 06:29:12.638,-0.02406718,-0.3792718,-0.29752848,0.20360146,0.084698685,-0.21755743,-0.08155324,0.23904726,0.9785154,0.32127473,0.4697955,0.95630944,0.9935671,0.7716265,0.766185,0.9779858,0.8987087,0.77232885,0.77021134,0.90545803,723.9822,714.33496,713.80396,728.4075,746.02026,744.6042,745.2237,1335.5613,-0.38604736328125,-0.025390625,0.943115234375,0.2093505859375,-0.299072265625,0.40374755859375,5.535863433707651,5.799505042557757,4.110294447225997,3.7973363850940562,0.0,0.0,0.0,0.0,0.0,0.0,0.0,0.0,0.0,0.0,0.0,0.0,62.196598,1,1.0,1.0,1.0,1.0,62.52
2026-01-24 06:29:13.648,0.22623067,-0.48338625,-0.16945128,0.27960634,0.26954824,-0.26655543,-0.16120957,0.1135193,0.9762017,0.352288,0.46197936,0.9079175,0.9560174,0.76085395,0.75945896,0.94096786,0.889307,0.76932997,0.7565899,0.9233579,727.1684,717.52124,715.8396,721.85803,748.941,755.1364,735.57654,1269.447,-0.38134765625,-0.0352783203125,0.9454345703125,0.2392578125,-0.710296630859375,0.10467529296875,5.5467277018811245,5.802953532174618,4.119358176572968,3.799289511956703,0.0,0.0,0.0,0.0,0.0,0.0,0.0,0.0,0.0,0.0,0.0,0.0,62.349052,1,1.0,1.0,1.0,1.0,62.52
2026-01-24 06:29:14.649,0.2228594,-0.41844654,-0.4440964,0.10222728,0.43781346,-0.108535886,-0.32753623,0.22937289,0.77946293,0.43175647,0.47058883,0.7848591,0.9825436,0.80473375,0.80515885,0.9751152,0.9193609,0.8187455,0.8011444,0.9216545,724.95575,719.5569,718.22925,724.77875,751.9502,747.7019,756.287,1332.375,-0.380859375,-0.0384521484375,0.94390869140625,0.13458251953125,-0.2691650390625,-0.13458251953125,5.562688410461817,5.8144586700998975,4.135532508404263,3.8091161814843955,0.0,0.0,0.0,0.0,0.0,0.0,0.0,0.0,0.0,0.0,0.0,0.0,62.050087,1,1.0,1.0,1.0,1.0,62.47
2026-01-24 06:29:15.656,0.05347212,-0.38547373,-0.88479376,-0.102652,0.36933646,-0.17258117,-0.32884917,0.17616546,0.7838052,0.38646704,0.4852586,0.8506059,0.8745403,0.7089679,0.72556275,0.9224273,0.8658393,0.73098284,0.726683,0.8481886,724.51324,723.4511,719.9109,729.20404,776.3779,769.8285,745.93176,1284.493,-0.37939453125,-0.04022216796875,0.943603515625,-0.0897216796875,0.112152099609375,-1.218719482421875,5.582860548840093,5.829778508928785,4.158756407505424,3.8257177598168943,0.0,0.0,0.0,0.0,0.0,0.0,0.0,0.0,0.0,0.0,0.0,0.0,62.00074,1,1.0,1.0,1.0,1.0,62.47
2026-01-24 06:29:16.663,-0.13001639,-0.50501126,-0.44658905,-0.19623408,0.10467628,-0.23809671,-0.20031896,0.10765952,0.5535618,0.26783627,0.37951276,0.7931559,0.86242664,0.72805613,0.73834646,0.9195916,0.96204966,0.80396044,0.73779225,0.94059056,726.1063,724.95575,720.3534,726.0178,776.8205,787.0872,754.25134,1209.7937,-0.38360595703125,-0.033203125,0.9381103515625,0.2093505859375,-0.9271240234375,0.500946044921875,5.592382042295497,5.837255322699854,4.167972724888539,3.8319738692988103,0.0,0.0,0.0,0.0,0.0,0.0,0.0,0.0,0.0,0.0,0.0,0.0,63.144207,1,1.0,1.0,1.0,1.0,62.47
2026-01-24 06:29:17.670,0.18394278,-0.53895795,-0.314751,0.20781347,0.1740414,0.02157033,-0.04835054,0.18363917,0.6702705,0.51413655,0.54359615,0.7186387,0.98847604,0.8674952,0.843943,1.0007081,1.0543195,0.8858147,0.849909,1.029656,729.02704,728.496,720.79596,730.9742,770.0055,778.3251,768.9434,1338.6589,-0.383544921875,-0.03973388671875,0.9383544921875,0.37384033203125,-0.7177734375,-0.299072265625,5.562932551319648,5.805150799895095,4.129215363707889,3.79455928283623,0.0,0.0,0.0,0.0,0.0,0.0,0.0,0.0,0.0,0.0,0.0,0.0,63.219013,1,1.0,1.0,1.0,1.0,62.47
2026-01-24 06:29:18.679,0.47611246,-0.6082442,-0.48208904,-0.020019384,0.1412182,-0.06983092,-0.29576203,0.091486916,0.6379446,0.52471745,0.5526407,0.55917555,1.0386103,0.8254987,0.8027211,0.9721113,1.0849867,0.8471518,0.82530785,0.99127406,732.8328,733.2753,728.319,733.1868,743.9846,743.01105,731.59375,1228.8225,-0.37872314453125,-0.0260009765625,0.94464111328125,-0.0,-1.24114990234375,0.351409912109375,5.575261664640107,5.817388360393868,4.14630522375605,3.8082311708747585,0.0,0.0,0.0,0.0,0.0,0.0,0.0,0.0,0.0,0.0,0.0,0.0,62.51249,1,1.0,1.0,1.0,1.0,62.47
2026-01-24 06:29:19.690,0.04437985,-0.37968755,-0.54045296,0.31162506,0.29423758,-0.24402483,-0.26209402,0.1953514,0.42491755,0.2862653,0.40551364,0.56852275,1.026623,0.7094533,0.6600393,0.85667914,0.9028162,0.66883516,0.69202125,0.83109933,726.3718,723.0086,721.504,724.2477,772.48364,775.22736,754.5169,1368.3971,-0.38421630859375,-0.03179931640625,0.939208984375,-0.127105712890625,-1.09161376953125,1.218719482421875,5.554173998044965,5.795812412083065,4.1127358558043055,3.779483584865174,0.0,0.0,0.0,0.0,0.0,0.0,0.0,0.0,0.0,0.0,0.0,0.0,62.47623,1,1.0,1.0,1.0,1.0,62.46
2026-01-24 06:29:20.703,0.20656936,-0.5023039,-0.57432395,0.3412381,0.08658247,-0.5814079,-0.44068286,0.11712982,0.39028567,-0.044116158,0.06984914,0.38744006,0.6362681,0.40593278,0.42723864,0.61857164,0.6114428,0.4796221,0.4999045,0.64134586,725.30975,720.1764,718.49475,726.6374,557.7672,552.1913,589.718,599.98474,-0.3780517578125,-0.03643798828125,0.946533203125,0.485992431640625,-1.54022216796875,0.291595458984375,5.571324893307584,5.814336599670982,4.138584269127149,3.801547814891639,0.0,0.0,0.0,0.0,0.0,0.0,0.0,0.0,0.0,0.0,0.0,0.0,62.361916,1,1.0,1.0,1.0,1.0,62.46
2026-01-24 06:29:21.705,-0.15053754,-0.67387134,-0.70287895,-0.12058957,0.049982812,-0.4386781,-0.5448892,0.02015042,0.3434668,-0.089494616,0.010470014,0.30507272,0.5400443,0.316501,0.28605345,0.52643853,0.5718715,0.38158813,0.37561518,0.5782737,714.9545,718.40625,720.4419,722.30054,626.2711,613.1722,624.2355,741.1524,-0.38006591796875,-0.0401611328125,0.94439697265625,0.34393310546875,-1.099090576171875,0.635528564453125,5.562810480890732,5.806920821114369,4.122654078153685,3.790225782609732,0.0,0.0,0.0,0.0,0.0,0.0,0.0,0.0,0.0,0.0,0.0,0.0,61.53423,1,1.0,1.0,1.0,1.0,62.46
2026-01-24 06:29:22.152,,,,,,,,,,,,,,,,,,,,,,,,,,,,,,,,,,,,,,,,,,,,,,,,,,,,,,,,,,/muse/elements/jaw_clench
2026-01-24 06:29:22.718,-0.12948214,-0.60057527,-0.6018833,-0.17801034,0.020368656,-0.5294983,-0.41029015,0.124986276,0.37831727,0.0069684726,0.029655395,0.7286223,0.63576275,0.39100203,0.40762386,0.5601183,0.66025925,0.5433165,0.48017475,0.6564965,723.0086,724.2477,720.2649,719.7339,678.31287,667.95764,671.32086,859.8395,-0.38348388671875,-0.03802490234375,0.9456787109375,0.007476806640625,-0.777587890625,-0.67291259765625,5.562200128746156,5.806249433755335,4.122043726009108,3.7893102543928663,0.0,0.0,0.0,0.0,0.0,0.0,0.0,0.0,0.0,0.0,0.0,0.0,61.13071,1,1.0,1.0,1.0,1.0,62.46
2026-01-24 06:29:23.734,0.008518428,-0.58907914,-0.74349767,-0.41181603,0.004769281,-0.4846171,-0.38443956,-0.14680573,0.6383617,0.031730607,0.07113877,0.65794563,0.45240468,0.37227502,0.42069355,0.59083015,0.58149034,0.5141876,0.48685902,0.6531436,739.29376,725.9293,721.681,734.4259,618.5711,611.5791,599.80774,1043.4017,-0.3887939453125,-0.036376953125,0.94085693359375,0.560760498046875,-0.34393310546875,0.3887939453125,5.577336861931669,5.820714779581813,4.14282621653196,3.8061559735831962,0.0,0.0,0.0,0.0,0.0,0.0,0.0,0.0,0.0,0.0,0.0,0.0,61.230846,1,1.0,1.0,1.0,1.0,62.46
2026-01-24 06:29:24.749,-0.10848739,-0.74689895,-0.6905546,-0.22619668,-0.007871332,-0.4617385,-0.52924144,-0.064771295,1.0512671,0.26733282,0.11397144,0.9730567,0.49400097,0.31174773,0.34187186,0.59299433,0.5535665,0.43475354,0.42376792,0.59972316,731.2397,727.1684,723.1856,730.1776,746.90533,739.9133,729.5581,1125.0931,-0.3843994140625,-0.0372314453125,0.94342041015625,0.456085205078125,-1.3458251953125,0.246734619140625,5.582311231909973,5.823156188160122,4.150364065517488,3.8095434279855995,0.0,0.0,0.0,0.0,0.0,0.0,0.0,0.0,0.0,0.0,0.0,0.0,59.892868,1,1.0,1.0,1.0,1.0,62.46
2026-01-24 06:29:25.759,-0.06724809,-0.58008343,-0.64839953,-0.042208426,0.22565104,-0.36533478,-0.75976336,0.18025501,1.0551773,0.2809939,0.12111818,0.9713472,0.4645553,0.34022012,0.35580608,0.5650285,0.5583741,0.43389806,0.42566812,0.597464,726.7259,723.9822,718.14075,726.4603,746.28577,739.11676,734.2489,1229.1766,-0.3876953125,-0.0380859375,0.94012451171875,0.418701171875,-1.51031494140625,0.814971923828125,5.582982619269008,5.82187444865651,4.148533009083756,3.8065832200844003,0.0,0.0,0.0,0.0,0.0,0.0,0.0,0.0,0.0,0.0,0.0,0.0,58.615173,1,1.0,1.0,1.0,1.0,62.45
2026-01-24 06:29:26.763,-0.047921393,-0.7638307,-0.7037423,0.11487938,0.07535347,-0.41725346,-0.8271154,0.28227443,0.50543636,-0.07126325,-0.10608506,0.56430596,0.32757995,0.12533422,0.16640666,0.34918293,0.45758796,0.28649282,0.16934532,0.36335403,728.319,724.2477,721.504,727.96497,784.078,796.20337,756.99506,1222.9811,-0.38818359375,-0.03021240234375,0.9373779296875,0.04486083984375,-1.532745361328125,0.85235595703125,5.596379848842477,5.833165963331187,4.167850654459624,3.8197057911928094,0.0,0.0,0.0,0.0,0.0,0.0,0.0,0.0,0.0,0.0,0.0,0.0,58.993965,1,1.0,1.0,1.0,1.0,62.45
2026-01-24 06:29:27.766,0.26194054,-0.67656523,-0.59159714,0.40687168,0.12626731,-0.3241042,-0.7119609,0.3211375,0.59454435,-0.08861405,-0.20618315,0.3713652,0.3124833,0.07127427,0.16662963,0.26980057,0.31693438,0.19609928,0.13575383,0.1853377,714.33496,719.9109,711.6798,705.7499,753.01227,757.43756,760.2698,1267.9424,-0.39031982421875,-0.04302978515625,0.9395751953125,0.859832763671875,-0.186920166015625,0.261688232421875,5.5908256443268245,5.82666571299144,4.162998354910235,3.8143346923205304,0.0,0.0,0.0,0.0,0.0,0.0,0.0,0.0,0.0,0.0,0.0,0.0,60.007996,1,1.0,1.0,1.0,1.0,62.45
2026-01-24 06:29:28.781,0.18150938,-0.7086153,-0.558512,-0.09520048,-0.00101137,-0.5580201,-0.6706215,-0.004005629,0.30730075,-0.30717155,-0.17566942,0.44220638,0.2664002,0.054942857,0.014675521,0.25011766,0.20183808,0.09848673,-0.04619331,0.13855344,727.87646,726.1948,724.77875,722.5661,771.33307,765.49164,750.6226,1352.0234,-0.3843994140625,-0.0325927734375,0.93994140625,0.142059326171875,0.418701171875,-0.1495361328125,5.552617600076294,5.785802636912,4.108799084471783,3.7647130629664067,0.0,0.0,0.0,0.0,0.0,0.0,0.0,0.0,0.0,0.0,0.0,0.0,59.971725,1,1.0,1.0,1.0,1.0,62.45
2026-01-24 06:29:29.791,-0.23463105,-0.7334726,-0.42288905,-0.21060766,-0.2808336,-0.3667613,-0.4527121,-0.2790919,0.41696364,-0.09464973,0.015587784,0.4930119,0.57061017,0.4289938,0.3516501,0.6200724,0.5091867,0.37758434,0.33867416,0.5606686,716.2821,714.512,714.6005,721.5925,570.86615,545.99585,583.5226,594.7629,-0.38946533203125,-0.0361328125,0.93792724609375,0.04486083984375,0.590667724609375,0.16448974609375,5.536351715423312,5.770330210046969,4.0866127840164035,3.744205230908614,0.0,0.0,0.0,0.0,0.0,0.0,0.0,0.0,0.0,0.0,0.0,0.0,59.947994,1,1.0,1.0,1.0,1.0,62.45
2026-01-24 06:29:30.805,0.112716414,-0.37784544,-0.40350473,0.020584827,-0.051038563,-0.31917748,-0.28409147,-0.15612338,0.5118389,0.31641275,-0.15971114,0.2581436,0.2840455,0.25505453,0.16878553,0.2545781,0.27510977,0.1785811,0.14728907,0.27546376,718.05225,710.3522,710.88324,715.6626,780.6263,780.0067,790.539,1376.4512,-0.3865966796875,-0.03656005859375,0.93707275390625,0.112152099609375,0.25421142578125,0.381317138671875,5.524541401425744,5.760534058126505,4.074527811553775,3.7324559521255036,0.0,0.0,0.0,0.0,0.0,0.0,0.0,0.0,0.0,0.0,0.0,0.0,60.949696,1,1.0,1.0,1.0,1.0,62.45
2026-01-24 06:29:31.809,0.013628953,-0.34043306,-0.73214674,0.1247232,-0.007317834,-0.30814603,-0.21276747,-0.15113014,0.51126486,0.3228061,-0.07092755,0.5296316,0.75211483,0.5710066,0.54871047,0.70539314,0.7547176,0.58085126,0.51483333,0.6778125,715.8396,712.6534,716.63617,726.1948,742.65704,747.34784,750.7996,1169.5233,-0.38446044921875,-0.032470703125,0.949951171875,0.201873779296875,-0.25421142578125,-0.2691650390625,5.521123429416113,5.758641966478316,4.070194311327278,3.7294347090098467,0.0,0.0,0.0,0.0,0.0,0.0,0.0,0.0,0.0,0.0,0.0,0.0,61.258907,1,1.0,1.0,1.0,1.0,62.43
2026-01-24 06:29:32.822,-0.25076157,-0.52486134,-0.24056068,0.004554379,0.12946416,-0.23109706,-0.19967416,0.109152906,0.769947,0.33761492,0.20257294,0.7109133,0.8553282,0.71440405,0.6896542,0.8708783,0.9070119,0.77178663,0.72764385,0.8749473,718.6718,715.48553,718.7603,725.39825,749.64905,748.764,758.32263,1264.6676,-0.3880615234375,-0.02520751953125,0.94427490234375,1.039276123046875,0.201873779296875,0.777587890625,5.517613904584794,5.759191283408435,4.068759983787521,3.7278172758267174,0.0,0.0,0.0,0.0,0.0,0.0,0.0,0.0,0.0,0.0,0.0,0.0,60.03424,1,1.0,1.0,1.0,1.0,62.43
2026-01-24 06:29:33.836,0.007204957,-0.76345533,-0.34472457,0.16422436,0.17508614,-0.3051207,-0.33376274,0.098891824,0.8303614,0.3447056,0.20884435,0.6767491,0.9226037,0.76978153,0.74875164,0.9303764,0.9438102,0.7608604,0.72983277,0.9031486,722.8316,723.0971,721.681,720.79596,779.9182,785.75964,778.67914,1292.0161,-0.38604736328125,-0.02801513671875,0.9468994140625,0.471038818359375,-0.037384033203125,0.37384033203125,5.5253958944281525,5.7692926114011875,4.0779763011706365,3.7390477552869372,0.0,0.0,0.0,0.0,0.0,0.0,0.0,0.0,0.0,0.0,0.0,0.0,59.348644,1,1.0,1.0,1.0,1.0,62.43
2026-01-24 06:29:34.844,0.37495524,-0.00900138,-0.42856023,0.49101856,0.018462958,-0.42501792,-0.32149616,0.08526761,0.46517304,0.349491,0.34523562,0.4212416,0.9020004,0.61170775,0.6400485,0.7231317,0.79880714,0.59211344,0.675892,0.8251256,723.3626,730.7972,717.52124,724.0707,788.2378,785.4941,759.8273,1198.1993,-0.4140625,-0.04998779296875,0.94940185546875,2.6318359375,0.919647216796875,-1.801910400390625,5.524236225353456,5.761235963092769,4.070987769115228,3.727420546932742,0.0,0.0,0.0,0.0,0.0,0.0,0.0,0.0,0.0,0.0,0.0,0.0,59.78996,1,1.0,1.0,1.0,1.0,62.43
2026-01-24 06:29:35.848,0.37495524,0.5101643,-0.0749166,0.49101856,0.018462958,0.034710385,-0.0833118,0.08526761,0.46517304,0.5547435,0.48026475,0.4212416,0.9020004,0.8072996,0.8416257,0.7231317,0.79880714,0.80188584,0.8716745,0.8251256,730.3546,731.94775,727.69946,730.3546,779.12164,786.5562,790.8045,1337.5084,-0.3955078125,-0.0399169921875,0.94476318359375,3.03558349609375,-0.11962890625,-2.97576904296875,5.5213370526667145,5.763219607562645,4.066013399136924,3.725925184178528,0.0,0.0,0.0,0.0,0.0,0.0,0.0,0.0,0.0,0.0,0.0,0.0,60.775314,1,1.0,1.0,1.0,1.0,62.43
2026-01-24 06:29:36.862,0.21366075,0.022533912,-0.1050396,0.695052,0.18584558,-0.15111822,-0.06658203,0.24971436,0.9111979,0.5312095,0.4893665,0.9447797,1.0417167,0.8225251,0.8348169,1.0261335,1.0818352,0.87925535,0.87292266,1.0676303,730.2661,732.9213,729.11554,732.39026,756.11,772.12964,775.6699,1335.3843,-0.39776611328125,-0.031005859375,0.93701171875,0.01495361328125,0.10467529296875,-0.097198486328125,5.525884176143814,5.770208139618053,4.072452614262213,3.732608540161648,0.0,0.0,0.0,0.0,0.0,0.0,0.0,0.0,0.0,0.0,0.0,0.0,63.03925,1,1.0,1.0,1.0,1.0,62.41
2026-01-24 06:29:37.875,0.21251455,-0.108865544,-0.062195808,-0.05075289,0.18262212,-0.110765144,-0.114057764,0.006888652,0.7407209,0.44843137,0.4867314,0.6140659,0.98388046,0.79609984,0.74132955,0.9329202,0.9595673,0.80300653,0.8002913,0.95540375,716.0166,711.06024,710.88324,717.2557,756.55255,758.23413,764.42957,1265.7297,-0.39849853515625,-0.0338134765625,0.935791015625,0.28411865234375,-0.6280517578125,-0.112152099609375,5.544591469375105,5.7925775457168065,4.096134277471807,3.7531163722194405,0.0,0.0,0.0,0.0,0.0,0.0,0.0,0.0,0.0,0.0,0.0,0.0,66.38075,1,1.0,1.0,1.0,1.0,62.41
2026-01-24 06:29:38.883,-0.08772154,-0.44708085,-0.3122345,0.07482739,-0.059484873,-0.27255657,-0.42611012,-0.1491018,0.62927157,0.3809536,0.36263773,0.4943705,0.8682317,0.6891155,0.6358723,0.8226909,0.8705889,0.71119124,0.68052226,0.82365656,729.5581,729.8236,731.85925,727.78796,737.5237,743.8961,717.4327,1304.761,-0.3984375,-0.03265380859375,0.9361572265625,-0.171966552734375,0.11962890625,-0.8074951171875,5.555852466442553,5.803289225854136,4.107517344968171,3.763461841070024,0.0,0.0,0.0,0.0,0.0,0.0,0.0,0.0,0.0,0.0,0.0,0.0,68.29387,1,1.0,1.0,1.0,1.0,62.41
2026-01-24 06:29:39.897,-0.031242905,-0.37035745,-0.3729878,-0.1691576,0.02569508,-0.4948981,-0.37262076,-0.016331697,0.56268877,0.21009637,0.17356429,0.50092643,0.7497433,0.5553896,0.5056037,0.7016435,0.73821497,0.5790454,0.53459376,0.6660761,728.93854,727.96497,731.1512,741.4179,765.22614,763.54456,756.1985,1308.7438,-0.400634765625,-0.03997802734375,0.93621826171875,0.059814453125,0.485992431640625,-0.538330078125,5.5959526023412725,5.842412798321532,4.164066471163245,3.8127782943518587,0.0,0.0,0.0,0.0,0.0,0.0,0.0,0.0,0.0,0.0,0.0,0.0,67.97902,1,1.0,1.0,1.0,1.0,62.41
2026-01-24 06:29:40.531,,,,,,,,,,,,,,,,,,,,,,,,,,,,,,,,,,,,,,,,,,,,,,,,,,,,,,,,,,/muse/elements/jaw_clench
2026-01-24 06:29:40.763,,,,,,,,,,,,,,,,,,,,,,,,,,,,,,,,,,,,,,,,,,,,,,,,,,,,,,,,,,/muse/elements/jaw_clench
2026-01-24 06:29:40.901,-0.06089322,-0.33397976,-0.49866998,-0.08855207,-0.01785829,-0.40942916,-0.335576,-0.13171989,0.50597686,0.18563609,0.28780472,0.6523017,0.70636374,0.5295769,0.52448106,0.6888451,0.6625181,0.52203065,0.5304157,0.6601813,732.6558,731.1512,729.6466,727.61096,772.7492,755.2249,762.2169,1230.5042,-0.4078369140625,-0.03472900390625,0.9306640625,0.725250244140625,-0.097198486328125,0.418701171875,5.592046348615979,5.835485301480581,4.161106263262046,3.805423551009704,0.0,0.0,0.0,0.0,0.0,0.0,0.0,0.0,0.0,0.0,0.0,0.0,66.18704,1,1.0,1.0,1.0,1.0,62.41
2026-01-24 06:29:41.906,-0.31676883,-0.4173288,-0.52300817,-0.023747157,-0.12523016,-0.4351269,-0.3260617,-0.012053565,0.65058875,0.1976302,0.30336666,0.6752164,0.68601614,0.5242329,0.5152597,0.70643693,0.6938377,0.5636399,0.5824926,0.677721,720.97296,719.0258,713.1844,716.8132,745.93176,741.2409,766.2882,1247.8514,-0.39947509765625,-0.037353515625,0.93328857421875,-0.067291259765625,-1.652374267578125,-0.13458251953125,5.549657392175095,5.788060939846935,4.10327539756336,3.756503826621844,0.0,0.0,0.0,0.0,0.0,0.0,0.0,0.0,0.0,0.0,0.0,0.0,65.605965,1,1.0,1.0,1.0,1.0,62.41
2026-01-24 06:29:42.916,-0.21845578,-0.5480495,-0.48649776,-0.06531661,-0.069703005,-0.6931997,-0.5350823,-0.17774522,0.25826982,0.08957777,0.17155094,0.48351312,0.6394308,0.43804482,0.41962913,0.6815495,0.5078085,0.3881099,0.3757171,0.5333241,722.21204,717.96375,719.6454,721.85803,779.38715,777.88257,744.0731,1162.1772,-0.3931884765625,-0.03607177734375,0.94512939453125,0.2691650390625,-0.725250244140625,-0.04486083984375,5.532292873661874,5.768834847292754,4.07761008988389,3.732181293660444,0.0,0.0,0.0,0.0,0.0,0.0,0.0,0.0,0.0,0.0,0.0,0.0,64.519775,1,1.0,1.0,1.0,1.0,62.38
2026-01-24 06:29:43.924,-0.13439244,-0.5828849,-0.37942165,-0.21849196,-0.31151468,-0.5554025,-0.6640005,-0.41421598,0.09635605,0.09699027,0.18064931,0.374854,0.32742044,0.29498836,0.33272055,0.546266,0.46219882,0.37512064,0.30732414,0.4845375,732.30176,726.1063,721.14996,726.7259,779.7412,782.5734,746.10876,1158.991,-0.40057373046875,-0.03607177734375,0.935302734375,0.0299072265625,0.31402587890625,0.456085205078125,5.5158744009727485,5.751012564671101,4.054752402069475,3.7098729227761487,0.0,0.0,0.0,0.0,0.0,0.0,0.0,0.0,0.0,0.0,0.0,0.0,64.295525,1,1.0,1.0,1.0,1.0,62.38
2026-01-24 06:29:44.934,-0.15451531,-0.7618794,-0.37572223,-0.16764714,-0.041444205,-0.545361,-0.5080464,-0.21192726,0.42419568,0.112057745,-0.14643688,0.39747557,0.29627928,0.123641685,0.15986516,0.3904361,0.5361044,0.2854803,0.19356367,0.42193398,733.6294,726.6374,723.0086,728.76154,750.7996,750.18005,748.4099,1203.0673,-0.39813232421875,-0.0316162109375,0.93707275390625,-0.067291259765625,0.052337646484375,0.396270751953125,5.505223756049877,5.741033307107265,4.041355172496006,3.6993443482821924,0.0,0.0,0.0,0.0,0.0,0.0,0.0,0.0,0.0,0.0,0.0,0.0,65.21627,1,1.0,1.0,1.0,1.0,62.38
2026-01-24 06:29:45.937,0.071848296,-0.7450371,-0.6495455,0.20354879,0.1781346,-0.31192958,-0.67232,0.15018766,0.43311918,0.12528044,0.0684593,0.6720968,0.55342853,0.32822174,0.44175637,0.61232543,0.6009116,0.3762485,0.3580865,0.56991446,717.78674,718.22925,720.3534,721.85803,745.0467,752.3927,732.12476,1188.5521,-0.39697265625,-0.03424072265625,0.9368896484375,0.291595458984375,-0.2093505859375,0.097198486328125,5.5045828862980715,5.744237655866295,4.038730658274325,3.698795031352073,0.0,0.0,0.0,0.0,0.0,0.0,0.0,0.0,0.0,0.0,0.0,0.0,64.60629,1,1.0,1.0,1.0,1.0,62.38
2026-01-24 06:29:46.947,0.090315074,-0.791104,-0.7499901,0.24193712,0.07762546,-0.31273034,-0.740128,0.10598968,0.40922657,0.0998432,0.023689836,0.57933545,0.5767915,0.37281376,0.44434085,0.62779564,0.58734566,0.41932482,0.37244785,0.56809515,720.88446,715.6626,714.689,715.7511,741.772,738.58575,746.99384,1232.6283,-0.40216064453125,-0.03173828125,0.92926025390625,0.28411865234375,-0.426177978515625,0.171966552734375,5.502843382686026,5.744634384760269,4.0321083375056626,3.694919295234008,0.0,0.0,0.0,0.0,0.0,0.0,0.0,0.0,0.0,0.0,0.0,0.0,62.92808,1,1.0,1.0,1.0,1.0,62.38
2026-01-24 06:29:47.957,0.022409307,-0.57932305,-0.5609001,-0.26619926,-0.13688,-0.5335835,-0.59826005,-0.1363351,0.64195716,0.035267256,-0.05429029,0.49032965,0.5252533,0.36479324,0.30518746,0.55414397,0.48056203,0.3180766,0.26547143,0.45433304,718.9373,715.30853,716.1051,716.8132,737.3466,742.3915,739.02826,1160.4071,-0.39959716796875,-0.03167724609375,0.93505859375,0.01495361328125,0.231781005859375,0.61309814453125,5.506383425124574,5.74835753284219,4.0324745487924085,3.697757432706292,0.0,0.0,0.0,0.0,0.0,0.0,0.0,0.0,0.0,0.0,0.0,0.0,61.971535,1,1.0,1.0,1.0,1.0,62.36
2026-01-24 06:29:48.963,0.015714483,-0.41929883,-0.56700414,-0.21515739,-0.30164674,-0.5359299,-0.53922486,-0.06979891,0.617315,0.26846325,0.24044313,0.6550724,0.63478047,0.41377652,0.4567776,0.7186036,0.5918416,0.4579415,0.3874066,0.5880248,730.1776,730.4431,723.8052,726.3718,723.1856,723.8937,703.53723,1306.8851,-0.39752197265625,-0.03369140625,0.93438720703125,-0.34393310546875,0.246734619140625,-0.299072265625,5.522405168919724,5.764318241422884,4.048984574303221,3.712985718713492,0.0,0.0,0.0,0.0,0.0,0.0,0.0,0.0,0.0,0.0,0.0,0.0,61.2897,1,1.0,1.0,1.0,1.0,62.36
2026-01-24 06:29:49.977,-0.082882755,-0.5371887,-0.45259798,-0.3245115,-0.14465575,-0.3084787,-0.20993164,0.2088815,0.7058962,0.4410271,0.39041406,0.80442,0.9317764,0.75717986,0.78556275,0.9574994,0.9424102,0.77225846,0.73599887,0.90502274,736.46155,728.14197,728.93854,733.0098,680.7911,679.8175,658.753,1181.7372,-0.3944091796875,-0.0330810546875,0.9356689453125,0.1495361328125,-0.61309814453125,-0.19439697265625,5.539311923324512,5.77750184774575,4.067874973177885,3.7238805044941943,0.0,0.0,0.0,0.0,0.0,0.0,0.0,0.0,0.0,0.0,0.0,0.0,60.68471,1,1.0,1.0,1.0,1.0,62.36
2026-01-24 06:29:50.985,0.03854303,-0.45884445,-0.5746835,-0.2176412,0.03911765,-0.38557017,-0.19494449,0.20059413,0.46012098,0.34239128,0.32381946,0.6992172,0.82587063,0.68023187,0.677087,0.8405902,0.8408435,0.6675456,0.6528735,0.81620175,716.8132,717.87524,716.2821,724.3362,742.48,742.48,763.3675,1258.2067,-0.39703369140625,-0.0384521484375,0.93414306640625,0.0897216796875,-0.770111083984375,-0.007476806640625,5.54684977231004,5.777623918174665,4.076877667310398,3.72372791645805,0.0,0.0,0.0,0.0,0.0,0.0,0.0,0.0,0.0,0.0,0.0,0.0,61.440918,1,1.0,1.0,1.0,1.0,62.36
2026-01-24 06:29:51.992,0.30314305,-0.28609803,-0.4414626,0.19604354,0.29326412,-0.21582389,-0.11760222,0.3228131,0.7334779,0.40315506,0.42612752,0.8692211,0.86161786,0.70943224,0.67033243,0.8637596,0.9175327,0.7404828,0.7242192,0.85540867,722.30054,720.70746,721.94653,725.30975,751.2421,750.6226,773.3687,1303.9645,-0.39202880859375,-0.03057861328125,0.9381103515625,0.605621337890625,-1.173858642578125,0.381317138671875,5.554082445223279,5.782476217724054,4.08615501990797,3.7288548744724985,0.0,0.0,0.0,0.0,0.0,0.0,0.0,0.0,0.0,0.0,0.0,0.0,62.63174,1,1.0,1.0,1.0,1.0,62.36
2026-01-24 06:29:53.008,-0.046765372,-0.5703695,-0.5524725,-0.15289226,0.18285184,-0.28418553,-0.26086625,0.12735508,0.7784649,0.4580988,0.44174352,0.8495284,0.9244841,0.7272478,0.6849492,0.9018941,0.97208214,0.7998233,0.7494073,0.91109604,726.8144,719.5569,717.0787,728.76154,758.1456,754.25134,777.61707,1279.0942,-0.396240234375,-0.0283203125,0.936279296875,0.037384033203125,-0.10467529296875,-0.0299072265625,5.565404477505186,5.796880528336075,4.101017094628424,3.7427709033688576,0.0,0.0,0.0,0.0,0.0,0.0,0.0,0.0,0.0,0.0,0.0,0.0,62.571285,1,1.0,1.0,1.0,1.0,62.36
2026-01-24 06:29:54.020,-0.28181896,-0.6836164,-0.6872921,-0.3266836,0.07780582,-0.213893,-0.2927211,0.039805558,0.78665996,0.4290928,0.39526737,0.84242886,0.8907627,0.70012367,0.71204704,0.90870523,0.9178262,0.79284054,0.7649354,0.8943548,722.12354,726.0178,728.85004,727.2569,487.49313,473.2436,515.8152,605.6492,-0.39642333984375,-0.0400390625,0.939697265625,0.246734619140625,-0.46356201171875,0.04486083984375,5.567998474119639,5.798162267839687,4.103336432777818,3.746402498629092,0.0,0.0,0.0,0.0,0.0,0.0,0.0,0.0,0.0,0.0,0.0,0.0,63.35193,1,1.0,1.0,1.0,1.0,62.35
2026-01-24 06:29:55.028,-0.0912305,-0.59025145,-0.28129494,-0.17948295,0.031599168,-0.21729563,-0.062788606,0.05567617,0.69588953,0.44522536,0.44170827,0.72343683,0.8848162,0.73423165,0.74024695,0.93976444,0.8951803,0.72635275,0.76008564,0.89519364,727.87646,714.7775,712.3878,723.1856,738.76276,753.98584,735.0455,1165.629,-0.39666748046875,-0.03802490234375,0.94171142578125,0.19439697265625,-0.291595458984375,0.171966552734375,5.578221872541306,5.80985051140834,4.111789809980211,3.756137615335098,0.0,0.0,0.0,0.0,0.0,0.0,0.0,0.0,0.0,0.0,0.0,0.0,64.30496,1,1.0,1.0,1.0,1.0,62.35
2026-01-24 06:29:55.773,,,,,,,,,,,,,,,,,,,,,,,,,,,,,,,,,,,,,,,,,,,,,,,,,,,,,,,,,,/muse/elements/jaw_clench
2026-01-24 06:29:56.039,0.17545724,-0.739394,-0.48498738,-0.11752381,0.02961228,-0.33092836,-0.17966282,-0.08797876,0.51552886,0.42570177,0.39762855,0.657507,0.7922896,0.62160724,0.6539098,0.82121766,0.92171735,0.75828016,0.75604945,0.9082436,731.2397,728.23047,730.7087,733.1868,786.37915,774.96185,777.79407,1357.1569,-0.39813232421875,-0.03253173828125,0.9395751953125,-0.007476806640625,-0.710296630859375,0.246734619140625,5.584569534844909,5.816869561070977,4.121311303435615,3.764926686217009,0.0,0.0,0.0,0.0,0.0,0.0,0.0,0.0,0.0,0.0,0.0,0.0,63.868244,1,1.0,1.0,1.0,1.0,62.35
2026-01-24 06:29:57.048,-0.030736083,-0.69886863,-0.6663671,-0.25444227,-0.087801635,-0.28477594,-0.27414218,-0.18802424,0.58569175,0.3174684,0.23588297,0.6256074,0.7894571,0.59237427,0.61346716,0.83057696,0.8698645,0.7543079,0.7204419,0.89258045,732.21326,731.3282,729.38104,733.6294,765.22614,772.7492,759.65027,1353.2626,-0.39764404296875,-0.03411865234375,0.9383544921875,0.306549072265625,-0.411224365234375,0.16448974609375,5.590917197148511,5.824102233984217,4.12866604677777,3.7742650740290395,0.0,0.0,0.0,0.0,0.0,0.0,0.0,0.0,0.0,0.0,0.0,0.0,63.07209,1,1.0,1.0,1.0,1.0,62.35
2026-01-24 06:29:58.051,-0.034443256,-0.7618981,-0.51438004,-0.18749514,0.004032176,-0.44374883,-0.31855202,-0.09274163,0.6919911,0.35857064,0.25905576,0.6614585,0.68605506,0.5281989,0.54526126,0.6715599,0.81786513,0.70156884,0.66084903,0.8004562,731.94775,731.68225,728.05347,729.20404,747.43634,742.56854,737.6122,1327.6842,-0.39935302734375,-0.03485107421875,0.9366455078125,-0.10467529296875,-0.37384033203125,-0.231781005859375,5.595983119948501,5.830999213217939,4.136234413370527,3.780978947619388,0.0,0.0,0.0,0.0,0.0,0.0,0.0,0.0,0.0,0.0,0.0,0.0,62.870796,1,1.0,1.0,1.0,1.0,62.35
2026-01-24 06:29:58.516,,,,,,,,,,,,,,,,,,,,,,,,,,,,,,,,,,,,,,,,,,,,,,,,,,,,,,,,,,/muse/elements/jaw_clench
2026-01-24 06:29:58.780,,,,,,,,,,,,,,,,,,,,,,,,,,,,,,,,,,,,,,,,,,,,,,,,,,,,,,,,,,/muse/elements/jaw_clench
2026-01-24 06:29:59.065,0.14046018,-0.43222326,-0.45942885,-0.20780197,-0.058875736,-0.45075735,-0.54186565,-0.08797076,0.68943197,0.3727187,0.26720262,0.63153535,0.7337198,0.51560336,0.5284298,0.66847163,0.82016283,0.65412027,0.61148125,0.75897104,719.1143,715.48553,719.2913,719.0258,754.9594,748.764,740.9754,1175.3647,-0.39385986328125,-0.0357666015625,0.93267822265625,0.2093505859375,-0.059814453125,0.0897216796875,5.603978733042462,5.840185012993825,4.149143361228334,3.790317335431419,0.0,0.0,0.0,0.0,0.0,0.0,0.0,0.0,0.0,0.0,0.0,0.0,62.527634,1,1.0,1.0,1.0,1.0,62.35
2026-01-24 06:30:00.078,0.15632682,-0.5406534,-0.74870205,-0.28953356,0.093790226,-0.45956522,-0.85844105,-0.14015704,0.6473105,0.25318292,0.24348617,0.59909844,0.76452893,0.4829508,0.47054788,0.70036024,0.6859813,0.55739915,0.5666385,0.7177756,722.7431,719.1143,717.69824,723.2741,681.4991,671.9404,694.244,854.44055,-0.39910888671875,-0.03973388671875,0.93408203125,0.8074951171875,-0.37384033203125,0.1495361328125,5.615666976611115,5.851171351596214,4.163547671840354,3.803226283289226,0.0,0.0,0.0,0.0,0.0,0.0,0.0,0.0,0.0,0.0,0.0,0.0,62.03508,1,1.0,1.0,1.0,1.0,62.34
2026-01-24 06:30:01.082,-0.49628076,-0.94108117,-0.5801473,-0.37901315,-0.08296268,-0.4280251,-0.685348,-0.3414712,0.6241563,0.052928556,0.07180967,0.5778615,0.6452254,0.36807823,0.42916864,0.6037861,0.6364091,0.4606238,0.47506806,0.6638414,724.0707,720.4419,717.60974,723.5397,764.87213,753.1893,743.5421,1200.943,-0.4017333984375,-0.0482177734375,0.93634033203125,0.5084228515625,-0.037384033203125,-0.590667724609375,5.62195360370026,5.85529122857211,4.173313306153589,3.811740695706077,0.0,0.0,0.0,0.0,0.0,0.0,0.0,0.0,0.0,0.0,0.0,0.0,62.028534,1,1.0,1.0,1.0,1.0,62.34
2026-01-24 06:30:02.096,-0.6016066,-0.88310224,-0.56640947,-0.29284012,-0.2621508,-0.49958122,-0.67068195,-0.2893276,0.57045937,0.22148201,0.14722155,0.6551881,0.57837754,0.3396075,0.3381409,0.5078203,0.61799955,0.42369792,0.4306903,0.6140127,727.1684,723.4511,718.9373,724.3362,766.6423,759.9158,763.81006,1250.7721,-0.392333984375,-0.026611328125,0.936279296875,0.366363525390625,-1.368255615234375,-0.0,5.573796819493122,5.798192785446916,4.108219249934435,3.7514073862146247,0.0,0.0,0.0,0.0,0.0,0.0,0.0,0.0,0.0,0.0,0.0,0.0,62.23385,1,1.0,1.0,1.0,1.0,62.34
2026-01-24 06:30:03.109,-0.28193662,-0.86071515,-0.47817117,0.008426726,-0.032601703,-0.5035404,-0.6280118,-0.039478436,0.6992909,0.21172602,0.070806205,0.7353818,0.5433349,0.32767183,0.25264418,0.49926376,0.5296091,0.39207348,0.37216517,0.54274344,715.9281,717.60974,722.03503,719.9994,520.86005,494.2196,530.2417,664.15186,-0.39154052734375,-0.04095458984375,0.94097900390625,0.28411865234375,-1.60003662109375,0.67291259765625,5.560948906849772,5.784154686121641,4.086399160765801,3.7316319767303243,0.0,0.0,0.0,0.0,0.0,0.0,0.0,0.0,0.0,0.0,0.0,0.0,62.00613,1,1.0,1.0,1.0,1.0,62.34
2026-01-24 06:30:04.122,0.027381025,-0.73050493,-0.5805385,0.06579034,-0.053511377,-0.76317334,-0.7776407,-0.13470961,0.6677001,-0.10830351,-0.13926847,0.69585073,0.39172947,0.15839909,0.13582253,0.4525219,0.34827948,0.23817845,0.19415861,0.40677994,719.2913,709.2016,717.87524,719.4683,748.941,743.5421,732.9213,1154.3887,-0.4005126953125,-0.04534912109375,0.93621826171875,0.067291259765625,0.560760498046875,-0.40374755859375,5.553288987435329,5.775335097632501,4.080875473857378,3.7271153708604534,0.0,0.0,0.0,0.0,0.0,0.0,0.0,0.0,0.0,0.0,0.0,0.0,62.39457,1,1.0,1.0,1.0,1.0,62.34
2026-01-24 06:30:05.139,0.29831174,-0.44941613,-0.4000254,0.32145625,-0.10271121,-0.56387144,-0.65733486,-0.01768503,0.5505792,-0.14517584,-0.4312895,0.73078513,0.35832888,0.03581239,0.036324,0.39842784,0.27064002,0.10146686,0.035763547,0.28948283,730.6202,730.0891,729.29254,730.7087,780.9803,785.3171,790.893,1354.4131,-0.4024658203125,-0.0418701171875,0.9395751953125,0.2093505859375,0.770111083984375,-0.351409912109375,5.544499916553418,5.765538945712038,4.0680885964284865,3.7152440216484277,0.0,0.0,0.0,0.0,0.0,0.0,0.0,0.0,0.0,0.0,0.0,0.0,63.603245,1,1.0,1.0,1.0,1.0,62.33
2026-01-24 06:30:06.147,0.18487519,-0.3743573,-0.49165994,0.25953922,-0.28296134,-0.7728566,-0.46056885,-0.0048508276,0.5376298,-0.36545956,-0.23557445,0.6541374,0.16226918,-0.13835245,-0.0872032,0.30234945,0.19430315,-0.02098972,-0.19178194,0.12540838,723.8052,721.5925,716.9902,714.512,748.6755,746.37427,741.1524,1165.452,-0.39532470703125,-0.03314208984375,0.935546875,0.07476806640625,-0.545806884765625,-0.097198486328125,5.5474296068473885,5.772344372124073,4.0730324487995615,3.7208897789857662,0.0,0.0,0.0,0.0,0.0,0.0,0.0,0.0,0.0,0.0,0.0,0.0,64.01463,1,1.0,1.0,1.0,1.0,62.33
2026-01-24 06:30:07.152,0.2274284,-0.64770377,-0.4854538,0.45136353,-0.19337212,-0.5986295,-0.6532787,-0.15039068,0.9807795,0.02560512,0.10909929,0.72036856,0.5873139,0.3195208,0.28696215,0.5811607,0.4645729,0.33343753,0.25967374,0.41495606,735.93054,730.3546,733.9834,745.4892,746.19727,745.4892,750.9766,1208.7316,-0.400634765625,-0.04058837890625,0.94024658203125,0.306549072265625,-0.10467529296875,0.142059326171875,5.543248694657034,5.770055551581909,4.066227022387526,3.7161290322580647,0.0,0.0,0.0,0.0,0.0,0.0,0.0,0.0,0.0,0.0,0.0,0.0,63.580547,1,1.0,1.0,1.0,1.0,62.33
2026-01-24 06:30:08.167,0.15617886,-0.36293378,-0.39383796,0.10438163,-0.18934822,-0.45535555,-0.4554098,-0.10397074,0.94709057,0.062470764,0.16589612,0.7397764,0.5425363,0.36854222,0.40288696,0.50308156,0.5133822,0.41207844,0.31762236,0.5871813,724.95575,717.3442,719.0258,721.06146,743.9846,743.36505,750.8881,1254.2239,-0.39910888671875,-0.0362548828125,0.9381103515625,0.067291259765625,-0.538330078125,0.336456298828125,5.532262356054646,5.761693727201202,4.056064659180316,3.70715685573278,0.0,0.0,0.0,0.0,0.0,0.0,0.0,0.0,0.0,0.0,0.0,0.0,63.516396,1,1.0,1.0,1.0,1.0,62.33
2026-01-24 06:30:09.175,-0.02578051,-0.38613454,-0.54527634,0.02368716,0.03569393,-0.28355992,-0.16698696,0.2228639,1.0973663,0.49101573,0.49790564,1.011656,0.92093015,0.7098547,0.69874984,0.8798821,0.87635994,0.7153567,0.6840675,0.9142867,735.57654,729.7351,729.7351,734.2489,744.9582,737.7892,733.9834,1104.2941,-0.39794921875,-0.0391845703125,0.9381103515625,0.530853271484375,-1.143951416015625,0.4486083984375,5.53696206756789,5.767583625396371,4.059330043153804,3.712527954605059,0.0,0.0,0.0,0.0,0.0,0.0,0.0,0.0,0.0,0.0,0.0,0.0,63.02143,1,1.0,1.0,1.0,1.0,62.33
2026-01-24 06:30:10.183,-0.19542517,-0.69911593,-0.34526685,0.09920403,0.3540053,-0.29762274,-0.08036792,0.22675002,1.0786405,0.46152326,0.46598735,1.0166448,0.92342824,0.7101755,0.6657827,0.8663849,0.86810976,0.692159,0.6818545,0.9035178,737.6122,732.39026,731.3282,734.69147,723.8052,722.9201,725.48676,1098.1871,-0.4010009765625,-0.04266357421875,0.93743896484375,0.276641845703125,-0.052337646484375,-0.35888671875,5.54523233912691,5.778173235104785,4.071811744510407,3.7243993038170853,0.0,0.0,0.0,0.0,0.0,0.0,0.0,0.0,0.0,0.0,0.0,0.0,61.38592,1,1.0,1.0,1.0,1.0,62.33
2026-01-24 06:30:11.198,-0.20492971,-0.57847416,-0.49695083,-0.12411034,0.13427769,-0.27468532,-0.2790893,0.20979631,0.54895,0.29964018,0.23633611,0.7446817,0.85335773,0.6547624,0.635355,0.8087799,0.85463923,0.6921024,0.6265404,0.8030391,719.7339,716.8132,721.06146,723.0971,738.85126,737.9662,735.311,1176.8693,-0.40399169921875,-0.04022216796875,0.9393310546875,0.43365478515625,-0.1495361328125,0.695343017578125,5.548070476599194,5.779454974608397,4.072605202298357,3.725040173568891,0.0,0.0,0.0,0.0,0.0,0.0,0.0,0.0,0.0,0.0,0.0,0.0,60.597942,1,1.0,1.0,1.0,1.0,62.29
2026-01-24 06:30:12.212,-0.4796741,-0.37143514,-0.45608234,-0.23390546,-0.093209594,-0.1996382,-0.26392445,0.19395679,0.65568244,0.3919387,0.4276947,0.9679261,0.87394685,0.6874883,0.6816196,0.9251999,0.93904763,0.79940003,0.7266739,0.9454015,731.3282,728.05347,727.78796,730.0006,549.3591,522.8957,545.0223,764.42957,-0.39801025390625,-0.03558349609375,0.9381103515625,0.0299072265625,-0.46356201171875,0.441131591796875,5.550481367570274,5.779149798536109,4.075046610876666,3.726291395465274,0.0,0.0,0.0,0.0,0.0,0.0,0.0,0.0,0.0,0.0,0.0,0.0,60.727154,1,1.0,1.0,1.0,1.0,62.29
2026-01-24 06:30:13.228,-0.20714962,-0.52520704,-0.4023948,-0.12624443,0.13993238,-0.20557792,-0.27691317,0.0619573,0.79257774,0.35719383,0.39357588,0.9296914,0.9065845,0.71387136,0.7078587,0.9637493,0.94912505,0.7621846,0.7237194,0.9142511,726.9029,721.41547,721.23846,726.5489,746.02026,750.7996,737.2581,1189.8798,-0.39910888671875,-0.03253173828125,0.93524169921875,-0.246734619140625,-0.336456298828125,-0.276641845703125,5.563787044322056,5.7936456619698165,4.0936623512862695,3.7415196814724747,0.0,0.0,0.0,0.0,0.0,0.0,0.0,0.0,0.0,0.0,0.0,0.0,60.37109,1,1.0,1.0,1.0,1.0,62.29
2026-01-24 06:30:14.242,-0.07357202,-0.35676736,-0.48450455,-0.23170131,0.28642774,-0.15371852,-0.2161085,0.10957784,0.7021257,0.40242052,0.2579954,0.55972415,0.8971586,0.7412554,0.7193892,0.9583454,0.8804681,0.70847696,0.7019448,0.8917577,724.60175,724.86725,722.6546,726.7259,778.4136,781.77686,778.76764,1329.8083,-0.39691162109375,-0.036865234375,0.9349365234375,0.157012939453125,-0.35888671875,-0.231781005859375,5.569005555158191,5.796788975514389,4.1028481510621555,3.748264072670052,0.0,0.0,0.0,0.0,0.0,0.0,0.0,0.0,0.0,0.0,0.0,0.0,59.6759,1,1.0,1.0,1.0,1.0,62.29
2026-01-24 06:30:15.249,-0.20845039,-0.6557392,-0.72517914,-0.097615264,0.07074863,-0.3846973,-0.33580774,0.20867065,0.5597597,0.36531076,0.3074558,0.5228274,0.65384734,0.54705304,0.5596276,0.78344387,0.80365366,0.59992546,0.5968327,0.8061159,725.39825,730.8857,730.4431,725.04425,762.8365,767.61584,740.17883,1183.2418,-0.4024658203125,-0.041748046875,0.93475341796875,0.157012939453125,-0.530853271484375,-0.6878662109375,5.567143981117231,5.791295806213194,4.100620365734449,3.7443273013375293,0.0,0.0,0.0,0.0,0.0,0.0,0.0,0.0,0.0,0.0,0.0,0.0,60.055904,1,1.0,1.0,1.0,1.0,62.29
2026-01-24 06:30:16.253,-0.031363837,-0.53515655,-0.50573516,0.009868506,-0.09352167,-0.24735628,-0.21853997,0.11338045,0.53118086,0.1558985,0.3608912,0.6599774,0.7740063,0.5633023,0.54653275,0.7639435,0.8176964,0.65117615,0.6330716,0.7908708,721.504,716.0166,714.42346,719.4683,742.74554,738.58575,764.42957,1255.0205,-0.39947509765625,-0.039306640625,0.93817138671875,0.2392578125,-0.755157470703125,0.082244873046875,5.563603938678683,5.787450587702358,4.096531006365782,3.7398412130748873,0.0,0.0,0.0,0.0,0.0,0.0,0.0,0.0,0.0,0.0,0.0,0.0,61.536903,1,1.0,1.0,1.0,1.0,62.29
2026-01-24 06:30:16.752,,,,,,,,,,,,,,,,,,,,,,,,,,,,,,,,,,,,,,,,,,,,,,,,,,,,,,,,,,/muse/elements/jaw_clench
2026-01-24 06:30:17.257,-0.17647313,-0.49780282,-0.51914436,-0.032590523,0.054270934,-0.18962677,-0.36937547,-0.17406026,0.566435,0.21604538,0.27554345,0.6867752,0.63555217,0.4501685,0.46278128,0.7388741,0.7202544,0.58774656,0.59765637,0.7775081,730.5317,729.11554,728.76154,729.02704,758.8537,753.2778,736.5501,1327.2417,-0.40106201171875,-0.041259765625,0.9375,0.01495361328125,-0.16448974609375,-0.022430419921875,5.553990892401592,5.780950337362611,4.087314688982667,3.7314488710869513,0.0,0.0,0.0,0.0,0.0,0.0,0.0,0.0,0.0,0.0,0.0,0.0,62.327034,1,1.0,1.0,1.0,1.0,62.27
2026-01-24 06:30:18.266,-0.058766898,-0.4941843,-0.5738099,-0.37635905,-0.13337344,-0.32711983,-0.30491075,0.09963558,0.50823677,0.23706467,0.28628483,0.7414512,0.6530351,0.4495105,0.48317122,0.7414637,0.76072276,0.5844034,0.57383806,0.81700885,727.4339,720.53046,718.8488,724.3362,656.80585,655.6553,670.78986,792.57465,-0.40087890625,-0.03173828125,0.9334716796875,0.321502685546875,-0.59814453125,0.127105712890625,5.551457931001598,5.778692034427675,4.083225329614,3.7305638604773144,0.0,0.0,0.0,0.0,0.0,0.0,0.0,0.0,0.0,0.0,0.0,0.0,62.584442,1,1.0,1.0,1.0,1.0,62.27
2026-01-24 06:30:19.276,-0.014457564,-0.42929813,-0.25929207,-0.3148562,-0.07752466,-0.3938807,-0.49711096,-0.034105036,0.40066352,-0.08268098,-0.12237381,0.43865559,0.35492492,0.14290676,0.07134135,0.34341538,0.52443045,0.3016755,0.18474469,0.5527106,735.488,724.77875,729.9121,733.5409,730.6202,729.11554,719.1143,1094.2043,-0.39703369140625,-0.034912109375,0.93292236328125,0.16448974609375,-0.35888671875,0.201873779296875,5.544103187659442,5.776616837136113,4.071140357151372,3.7215306487375726,0.0,0.0,0.0,0.0,0.0,0.0,0.0,0.0,0.0,0.0,0.0,0.0,63.2708,1,1.0,1.0,1.0,1.0,62.27
2026-01-24 06:30:20.285,-0.06959807,-0.34365645,-0.19348255,-0.14801629,0.07835675,-0.3059979,-0.4991456,0.01486997,0.40184963,0.04355859,-0.12492101,0.40953204,0.50307775,0.21180108,0.19389756,0.5180435,0.53818536,0.37073922,0.2701305,0.5530648,736.6386,731.2397,727.1684,730.0891,764.5181,762.8365,770.53656,1246.8778,-0.39935302734375,-0.038330078125,0.93524169921875,0.067291259765625,-0.95703125,0.052337646484375,5.539311923324512,5.7737176644493715,4.05862813818754,3.7130772715351785,0.0,0.0,0.0,0.0,0.0,0.0,0.0,0.0,0.0,0.0,0.0,0.0,62.941692,1,1.0,1.0,1.0,1.0,62.27
2026-01-24 06:30:21.297,-0.25419056,-0.4756728,-0.43014815,-0.073503524,-0.1958783,-0.5640445,-0.4658424,0.13478683,0.28548312,0.014103459,-0.1829541,0.22138321,0.30496296,0.048761956,0.055196997,0.48987627,0.3281965,0.06995777,0.027849946,0.20413344,726.6374,720.53046,720.2649,726.2833,762.8365,752.56976,763.63306,1224.7512,-0.39984130859375,-0.03765869140625,0.93377685546875,0.157012939453125,-0.291595458984375,0.07476806640625,5.565770688791932,5.801732827885464,4.089023674987483,3.7399327658965738,0.0,0.0,0.0,0.0,0.0,0.0,0.0,0.0,0.0,0.0,0.0,0.0,61.74449,1,1.0,1.0,1.0,1.0,62.27
2026-01-24 06:30:22.307,-0.057629675,-0.5367779,-0.5721313,-0.21913773,-0.10891461,-0.617843,-0.67037505,-0.14053424,0.44811386,-0.14624418,-0.40459597,0.15312462,0.19434865,0.13050781,0.04733251,0.30272493,0.30100992,0.065533,-0.041823894,0.27474988,723.9822,727.69946,729.29254,730.2661,780.0952,782.39636,784.255,1314.6737,-0.396728515625,-0.0345458984375,0.93328857421875,-0.007476806640625,-0.35888671875,-0.186920166015625,5.571416446129271,5.807409102830031,4.091434565958563,3.7439305724435545,0.0,0.0,0.0,0.0,0.0,0.0,0.0,0.0,0.0,0.0,0.0,0.0,61.6597,1,1.0,1.0,1.0,1.0,62.24
2026-01-24 06:30:23.311,-0.2270169,-0.5189727,-0.3999998,-0.33479053,-0.3075802,-0.6599818,-0.9164528,-0.18882045,0.5588135,-0.30897304,-0.36858594,0.18218815,0.24986798,0.08275487,-0.06464859,0.25645703,0.18765089,0.026468208,-0.026757026,0.2543004,717.87524,710.1752,715.9281,719.1143,752.0387,751.0651,747.43634,1168.5497,-0.39898681640625,-0.03607177734375,0.942626953125,0.037384033203125,-0.34393310546875,-0.231781005859375,5.578679636649739,5.813970388384236,4.100010013589872,3.750919104498963,0.0,0.0,0.0,0.0,0.0,0.0,0.0,0.0,0.0,0.0,0.0,0.0,61.765213,1,1.0,1.0,1.0,1.0,62.24
2026-01-24 06:30:24.313,-0.37272516,-0.7249509,-0.4314859,-0.1995774,-0.028676074,-0.38332394,-0.43776217,-0.022148168,0.59705245,0.20855008,-0.058491845,0.45453507,0.5474026,0.30116713,0.28154853,0.50291973,0.47408566,0.3196956,0.26659286,0.48954806,724.51324,714.42346,715.9281,730.5317,736.8156,741.2409,720.1764,1156.4243,-0.40179443359375,-0.03814697265625,0.93756103515625,-0.1495361328125,0.291595458984375,-0.441131591796875,5.580358105047326,5.810979662875807,4.098270509977827,3.7482030374555944,0.0,0.0,0.0,0.0,0.0,0.0,0.0,0.0,0.0,0.0,0.0,0.0,61.05112,1,1.0,1.0,1.0,1.0,62.24
2026-01-24 06:30:25.324,0.08068864,-0.48402843,-0.5392067,0.11748185,0.29429048,-0.10742679,-0.15594088,0.18621102,0.6637474,0.3399832,0.32878143,0.6386115,0.9278898,0.76024806,0.7483519,0.94996715,0.84785634,0.7259503,0.7232978,0.9050207,727.0799,719.6454,722.30054,719.4683,546.26135,533.1624,568.742,565.7328,-0.402587890625,-0.0372314453125,0.93145751953125,0.097198486328125,-1.0467529296875,0.7476806640625,5.547765300526906,5.777837541425267,4.050571489879122,3.711063109458074,0.0,0.0,0.0,0.0,0.0,0.0,0.0,0.0,0.0,0.0,0.0,0.0,61.085365,1,1.0,1.0,1.0,1.0,62.24
2026-01-24 06:30:26.342,0.027449304,-0.35408345,-0.30881038,-0.026679827,0.10540268,-0.23660672,-0.29046208,0.1202662,0.6381313,0.31030855,0.32937378,0.63868845,0.71213984,0.5399453,0.54140145,0.7436218,0.60131115,0.5149276,0.48960796,0.6758625,718.6718,716.1051,722.9201,722.47754,731.1512,742.83405,729.5581,1155.4508,-0.39459228515625,-0.03485107421875,0.94012451171875,0.31402587890625,-0.6878662109375,-0.725250244140625,5.5333304723076555,5.760045776410843,4.0293007176406075,3.690219583720764,0.0,0.0,0.0,0.0,0.0,0.0,0.0,0.0,0.0,0.0,0.0,0.0,62.542923,1,1.0,1.0,1.0,1.0,62.24
2026-01-24 06:30:27.357,-0.2317299,-0.4929456,-0.34677884,-0.34848836,0.05193247,-0.2973135,-0.44971737,0.099016786,0.66178167,0.13654955,0.19537233,0.5334105,0.63478315,0.3684199,0.43845996,0.62394357,0.59315526,0.42981112,0.42689425,0.62699825,735.66504,731.68225,737.8777,737.5237,732.6558,731.0627,740.9754,1236.0801,-0.40069580078125,-0.03167724609375,0.93438720703125,-0.411224365234375,0.0299072265625,-0.85235595703125,5.525304341606466,5.75104308227833,4.011569987840641,3.6765171780750068,0.0,0.0,0.0,0.0,0.0,0.0,0.0,0.0,0.0,0.0,0.0,0.0,64.22081,1,1.0,1.0,1.0,1.0,62.24
2026-01-24 06:30:28.363,0.112160206,-0.10017713,0.003250165,-0.0163972,0.34344876,-0.012860789,0.0120990025,0.3494881,0.69566673,0.44439262,0.5185875,0.8631715,0.9694336,0.7374476,0.7842045,0.9443642,0.8924797,0.7440012,0.73625284,0.88962096,723.3626,716.2821,718.5833,714.7775,747.34784,744.4271,735.311,1137.3955,-0.39727783203125,-0.0328369140625,0.9361572265625,0.037384033203125,-0.097198486328125,0.1495361328125,5.528966454473929,5.761815797630117,4.014438642920154,3.681338960017166,0.0,0.0,0.0,0.0,0.0,0.0,0.0,0.0,0.0,0.0,0.0,0.0,65.449394,1,1.0,1.0,1.0,1.0,62.22
2026-01-24 06:30:29.373,0.62715006,0.49950722,0.4589846,0.62211466,0.33455724,0.19063547,0.29686567,0.50547636,0.5527891,0.4841887,0.58722764,0.8032473,1.049537,0.83710784,0.8440182,0.974002,0.93249226,0.7641176,0.8080561,0.92670006,822.8438,818.15295,818.684,829.03925,792.0436,798.1505,820.0116,1450.0,-0.3994140625,-0.037841796875,0.93548583984375,0.142059326171875,-0.785064697265625,-0.5682373046875,5.5290885249028445,5.760442505304819,4.009372720120163,3.6760899315738027,0.0,0.0,0.0,0.0,0.0,0.0,0.0,0.0,0.0,0.0,0.0,0.0,66.9441,1,1.0,1.0,1.0,1.0,62.22
2026-01-24 06:30:29.505,,,,,,,,,,,,,,,,,,,,,,,,,,,,,,,,,,,,,,,,,,,,,,,,,,,,,,,,,,/muse/elements/blink
2026-01-24 06:30:30.386,0.84412456,0.72394013,0.66326374,0.9361576,0.3841293,0.34958965,0.47598064,0.673715,0.5347182,0.4375546,0.5706,0.70052516,1.0684344,0.8559778,0.83656335,0.91994184,0.9076104,0.7611741,0.7809033,0.9052466,763.63306,761.42035,764.5181,776.2009,809.5679,802.4873,801.6023,1277.2356,-0.3974609375,-0.03863525390625,0.93988037109375,0.07476806640625,-0.6280517578125,-0.485992431640625,5.549840497818468,5.7775934005674365,4.033634217867105,3.689548196361729,0.0,0.0,0.0,0.0,0.0,0.0,0.0,0.0,0.0,0.0,0.0,0.0,67.77761,1,1.0,1.0,1.0,1.0,62.22
2026-01-24 06:30:31.397,0.84412456,0.72394013,0.66326374,0.9361576,0.3841293,0.34958965,0.47598064,0.673715,0.5347182,0.4375546,0.5706,0.70052516,1.0684344,0.8559778,0.83656335,0.91994184,0.9076104,0.7611741,0.7809033,0.9052466,769.6515,762.925,761.7744,759.2962,796.55743,807.35516,814.61273,1450.0,-0.40234375,-0.0374755859375,0.9359130859375,0.097198486328125,-0.441131591796875,-0.70281982421875,5.580663281119615,5.804357342107146,4.0675697971055955,3.7154576448990295,0.0,0.0,0.0,0.0,0.0,0.0,0.0,0.0,0.0,0.0,0.0,0.0,65.64248,1,1.0,1.0,1.0,1.0,62.22
2026-01-24 06:30:32.414,0.84412456,0.72394013,0.66326374,0.9361576,0.3841293,0.34958965,0.47598064,0.673715,0.5347182,0.4375546,0.5706,0.70052516,1.0684344,0.8559778,0.83656335,0.91994184,0.9076104,0.7611741,0.7809033,0.9052466,764.5181,762.3939,764.6066,767.1733,806.1161,798.9471,825.41046,1450.0,-0.400634765625,-0.03961181640625,0.93536376953125,0.2093505859375,-0.299072265625,-0.216827392578125,5.603032687218368,5.824773621343252,4.093448728035668,3.734134420523091,0.0,0.0,0.0,0.0,0.0,0.0,0.0,0.0,0.0,0.0,0.0,0.0,63.32773,1,2.0,1.0,1.0,2.0,62.22
2026-01-24 06:30:33.416,0.66343486,0.49099138,0.43770525,0.747136,-0.17156544,-0.48780242,-0.4518734,-0.048759587,0.55951875,-0.027443094,-0.012186461,0.5192236,0.66803664,0.31675956,0.33388498,0.68425924,0.697979,0.31590474,0.37501228,0.6662886,743.27655,742.83405,749.3835,744.6927,778.2366,784.078,811.24945,1408.3135,-0.40234375,-0.03143310546875,0.9339599609375,0.291595458984375,-0.112152099609375,0.500946044921875,5.616246811148463,5.835180125408292,4.1083108027561215,3.747470614882102,0.0,0.0,0.0,0.0,0.0,0.0,0.0,0.0,0.0,0.0,0.0,0.0,62.75797,1,1.0,1.0,1.0,1.0,62.21
2026-01-24 06:30:34.427,0.9392672,0.49099138,0.43770525,0.84063727,0.119394995,-0.48780242,-0.4518734,-0.08801556,0.5502298,-0.027443094,-0.012186461,0.51813376,0.7686586,0.31675956,0.33388498,0.7846255,0.8300186,0.31590474,0.37501228,0.79386294,735.134,731.2397,727.69946,733.8064,772.7492,787.9723,800.6287,1448.7609,-0.40216064453125,-0.03472900390625,0.93438720703125,0.28411865234375,-0.157012939453125,0.2093505859375,5.635167727630355,5.853002408029945,4.132175571609088,3.768741387120616,0.0,0.0,0.0,0.0,0.0,0.0,0.0,0.0,0.0,0.0,0.0,0.0,62.421402,1,1.0,1.0,1.0,1.0,62.21
2026-01-24 06:30:35.435,0.7997064,0.3899571,0.26165348,0.41352156,0.3146913,-0.26337203,-0.3941976,0.1243218,0.37615255,-0.023368867,-0.5408829,0.3765788,0.5614393,0.36683607,0.2149029,0.43508142,0.5211976,0.31061608,0.18340956,0.34701785,724.1592,718.22925,717.87524,719.9994,768.41235,780.8033,792.1321,1448.8494,-0.40289306640625,-0.03399658203125,0.9339599609375,0.179443359375,-0.112152099609375,0.04486083984375,5.647924087452018,5.862798559950409,4.148838185156045,3.781833440621796,0.0,0.0,0.0,0.0,0.0,0.0,0.0,0.0,0.0,0.0,0.0,0.0,61.86825,1,1.0,1.0,1.0,1.0,62.21
2026-01-24 06:30:36.439,0.12094042,0.18156295,0.062985264,0.26387656,0.1038916,-0.21273603,-0.20916592,0.09769991,0.4692926,0.118595436,-0.24474132,0.45595032,0.63485247,0.3831427,0.24869347,0.48539624,0.5917818,0.41111463,0.39634502,0.4531641,723.7167,715.30853,723.6282,720.70746,757.9686,758.9422,776.2009,1401.1445,-0.4046630859375,-0.0286865234375,0.93524169921875,0.2093505859375,-0.366363525390625,0.657958984375,5.65454640822068,5.8663080847817275,4.157200009536752,3.789432324821782,0.0,0.0,0.0,0.0,0.0,0.0,0.0,0.0,0.0,0.0,0.0,0.0,61.424213,1,1.0,1.0,1.0,1.0,62.21
2026-01-24 06:30:37.453,0.0496288,0.08516523,0.1643595,0.12209763,-0.05578666,-0.24906817,-0.31270212,-0.04032458,0.37124294,0.09829547,-0.0064299535,0.38302946,0.7098882,0.39937386,0.2801199,0.5592255,0.6751636,0.4077837,0.43456623,0.61659,732.21326,734.957,739.8248,730.9742,789.29987,785.67114,795.4953,1448.9379,-0.40350341796875,-0.03369140625,0.93878173828125,0.0897216796875,-0.35888671875,0.0897216796875,5.658178003480915,5.867406718641966,4.1656228691319175,3.7944982476217723,0.0,0.0,0.0,0.0,0.0,0.0,0.0,0.0,0.0,0.0,0.0,0.0,60.84777,1,1.0,1.0,1.0,1.0,62.21
2026-01-24 06:30:38.454,0.55466866,0.4726868,0.5769207,0.5360884,-0.055915516,-0.26872215,-0.3547764,0.09077479,0.41899946,0.10764105,0.06887574,0.33966476,0.66844666,0.40545258,0.24957234,0.6909251,0.6576683,0.38805085,0.36635703,0.52624434,721.85803,723.7167,721.06146,720.2649,622.9964,605.56067,621.5803,1153.5922,-0.40118408203125,-0.032958984375,0.9305419921875,0.1495361328125,-0.49346923828125,0.059814453125,5.675512004386906,5.884221920225067,4.190830412702954,3.815738502253058,0.0,0.0,0.0,0.0,0.0,0.0,0.0,0.0,0.0,0.0,0.0,0.0,60.349487,1,1.0,1.0,1.0,1.0,62.18
2026-01-24 06:30:39.462,0.27295634,-0.009660902,0.23174317,0.30659577,0.22566971,-0.34570092,-0.35716805,0.02194685,0.33217034,-0.07058781,0.04520131,0.37164488,0.5020859,0.2955583,0.24004996,0.494988,0.3510382,0.15740077,0.217177,0.3755898,726.7259,720.2649,718.5833,718.40625,770.80206,780.0952,785.4941,1449.7345,-0.40435791015625,-0.03204345703125,0.937744140625,-0.186920166015625,0.0299072265625,-0.94207763671875,5.66711966239897,5.872503159049185,4.182621176358391,3.8062780440121116,0.0,0.0,0.0,0.0,0.0,0.0,0.0,0.0,0.0,0.0,0.0,0.0,61.14184,1,1.0,1.0,1.0,1.0,62.18
2026-01-24 06:30:40.470,0.5042032,0.39557263,0.18126753,0.3643811,0.2406516,-0.12288058,-0.43556026,-0.1376095,0.32926518,0.09451298,-0.230563,0.11947342,0.36075094,0.1362032,0.044295907,0.29719666,0.16468681,-0.08058974,-0.1782737,0.14361377,722.38904,714.33496,716.8132,715.8396,775.5814,788.1493,793.28265,1450.0,-0.4024658203125,-0.03277587890625,0.92742919921875,0.22430419921875,-1.069183349609375,0.70281982421875,5.633611329661684,5.827581241208306,4.140598431204253,3.762973559354362,0.0,0.0,0.0,0.0,0.0,0.0,0.0,0.0,0.0,0.0,0.0,0.0,62.77333,1,1.0,1.0,1.0,1.0,62.18
2026-01-24 06:30:41.484,0.5550789,0.8716594,0.77547824,0.6497628,0.035662,0.055355627,0.06962435,0.37248585,0.39236164,0.45583633,0.3128557,0.5837336,0.58223546,0.5630904,0.6308045,0.75901866,0.6353359,0.5735475,0.59936047,0.8093822,735.134,730.2661,727.52246,731.59375,804.523,806.0276,807.97473,1450.0,-0.40155029296875,-0.036865234375,0.9346923828125,0.321502685546875,-1.6748046875,0.231781005859375,5.649907731921894,5.851415492454045,4.163822330305415,3.7867467753856423,0.0,0.0,0.0,0.0,0.0,0.0,0.0,0.0,0.0,0.0,0.0,0.0,63.079205,1,1.0,1.0,1.0,1.0,62.18
2026-01-24 06:30:42.496,0.62988544,0.65391815,0.5609625,0.680845,0.1730635,-0.061918613,-0.051030077,0.28930596,0.5036849,0.4312963,0.31699046,0.7043716,0.67704713,0.46335152,0.46558976,0.6777565,0.5635993,0.46422973,0.43388757,0.67232746,707.34296,702.4751,714.15796,707.25446,760.2698,763.1905,738.93976,1260.0653,-0.40020751953125,-0.0333251953125,0.93310546875,0.291595458984375,0.411224365234375,0.0299072265625,5.58319624251961,5.779210833750566,4.072452614262213,3.7058751162291683,0.0,0.0,0.0,0.0,0.0,0.0,0.0,0.0,0.0,0.0,0.0,0.0,63.06085,1,1.0,1.0,1.0,1.0,62.18
2026-01-24 06:30:43.501,0.13257827,0.7041251,0.70258874,0.39649683,-0.22041433,-0.19984096,-0.31022054,-0.0019119426,0.08234549,0.3252603,0.31748292,0.4428142,0.6837112,0.4043104,0.24133272,0.5186688,0.44408897,0.41813004,0.26159838,0.4271129,735.57654,729.02704,719.3798,725.22125,737.7892,728.85004,707.07745,1210.5902,-0.40234375,-0.032470703125,0.93304443359375,0.246734619140625,-0.590667724609375,-0.171966552734375,5.56503826621844,5.7648980759602315,4.0538063562453805,3.689700784397873,0.0,0.0,0.0,0.0,0.0,0.0,0.0,0.0,0.0,0.0,0.0,0.0,64.17723,1,1.0,1.0,1.0,1.0,62.18
2026-01-24 06:30:44.510,0.23224829,0.87771887,0.90879816,0.61479086,0.07618733,0.08025702,0.00988306,0.4271645,0.2327188,0.46659565,0.3981892,0.724519,0.7106196,0.6089048,0.51073396,0.7681363,0.56917816,0.5338512,0.536075,0.8231529,714.42346,714.15796,710.3522,714.512,750.8881,759.2077,733.0098,1245.4618,-0.40399169921875,-0.03253173828125,0.932373046875,1.016845703125,-0.59814453125,1.188812255859375,5.554997973440145,5.760686646162649,4.042728464821305,3.6847264144195693,0.0,0.0,0.0,0.0,0.0,0.0,0.0,0.0,0.0,0.0,0.0,0.0,64.9308,1,1.0,1.0,1.0,1.0,62.17
2026-01-24 06:30:45.521,-0.029470813,0.4203616,0.68678457,0.36167833,0.1665856,0.016512826,-0.098024376,0.11734626,0.7983524,0.32977256,0.2610397,0.6118149,0.8392962,0.6277409,0.49693173,0.6898051,0.6755536,0.55158514,0.5470663,0.7822959,714.866,712.1223,711.5028,707.43146,749.472,747.08234,758.0571,1341.7567,-0.40338134765625,-0.0316162109375,0.937744140625,0.16448974609375,-0.500946044921875,-0.112152099609375,5.5546622797606275,5.770086069189138,4.041385690103235,3.6903111365424506,0.0,0.0,0.0,0.0,0.0,0.0,0.0,0.0,0.0,0.0,0.0,0.0,64.4583,1,1.0,1.0,1.0,1.0,62.17
2026-01-24 06:30:46.526,0.20312461,0.23626883,0.24850573,0.35204783,0.30661798,-0.28851733,-0.55325484,0.09034775,0.5408521,0.16943239,0.12130219,0.74911195,0.7957198,0.5306362,0.5387375,0.7513241,0.73085326,0.54519767,0.5769341,0.74583125,718.5833,711.8568,721.14996,718.05225,742.65704,743.45355,728.496,1202.5361,-0.4027099609375,-0.0328369140625,0.9373779296875,0.2691650390625,-1.15142822265625,-0.0299072265625,5.553105881791955,5.77188660801564,4.036106144052643,3.690250101327993,0.0,0.0,0.0,0.0,0.0,0.0,0.0,0.0,0.0,0.0,0.0,0.0,63.995205,1,1.0,1.0,1.0,1.0,62.17
2026-01-24 06:30:47.541,0.29691342,-0.046360493,0.18410636,0.40025952,0.37446266,-0.24471268,-0.3288276,0.0799448,0.7446874,0.31419253,0.2783438,0.7890564,0.8194431,0.50302684,0.5148998,0.785832,0.7313308,0.51426965,0.57584953,0.7875941,714.866,716.9902,712.3878,709.73267,756.1985,760.4468,746.10876,1312.7266,-0.40771484375,-0.0350341796875,0.93011474609375,0.112152099609375,-0.620574951171875,0.10467529296875,5.560430107526882,5.781377583863815,4.047367141120091,3.7036473309014615,0.0,0.0,0.0,0.0,0.0,0.0,0.0,0.0,0.0,0.0,0.0,0.0,63.74944,1,1.0,1.0,1.0,1.0,62.17
2026-01-24 06:30:48.554,0.016038794,0.003696391,-0.22277929,0.09170725,-0.07141675,-0.453785,-0.26372576,0.12422393,0.7666195,0.28369173,0.21834588,0.7988991,0.793647,0.57700527,0.55716443,0.80615187,0.8106337,0.6155433,0.5734526,0.8043637,711.32574,708.405,706.1924,712.3878,762.3054,761.8629,734.86847,1283.1655,-0.401123046875,-0.03076171875,0.92987060546875,-0.082244873046875,-0.25421142578125,-0.157012939453125,5.580907421977446,5.800145912309563,4.070285864148964,3.7245824094604583,0.0,0.0,0.0,0.0,0.0,0.0,0.0,0.0,0.0,0.0,0.0,0.0,63.741177,1,1.0,1.0,1.0,1.0,62.17
2026-01-24 06:30:49.556,0.025115289,0.00614708,-0.13700368,-0.05488748,-0.1743822,-0.46847892,-0.5798934,-0.18658388,0.589642,0.17313886,0.1403325,0.59605855,0.7399625,0.49751288,0.50435984,0.6512068,0.73727334,0.5707362,0.5102552,0.6823113,713.71545,716.63617,716.63617,709.2901,780.6263,782.13086,769.1204,1431.0597,-0.4036865234375,-0.032470703125,0.93389892578125,0.276641845703125,0.067291259765625,0.0897216796875,5.591222373220799,5.807531173258947,4.082614977469423,3.734348043773693,0.0,0.0,0.0,0.0,0.0,0.0,0.0,0.0,0.0,0.0,0.0,0.0,59.810574,1,1.0,1.0,1.0,1.0,62.16
2026-01-24 06:30:50.570,-0.0049043945,0.11351104,0.123585716,0.14894636,0.02612802,-0.38607058,-0.44934317,-0.08734111,0.65521795,0.2667297,0.16117926,0.44612327,0.7333051,0.51027846,0.5103828,0.7178312,0.77765197,0.60927576,0.54194325,0.6663942,729.8236,729.20404,729.9121,732.5673,743.45355,748.8525,726.1948,1245.5503,-0.40472412109375,-0.03076171875,0.92852783203125,0.22430419921875,-0.067291259765625,0.112152099609375,5.598516081348497,5.808049972581837,4.089298333452542,3.736270653029111,0.0,0.0,0.0,0.0,0.0,0.0,0.0,0.0,0.0,0.0,0.0,0.0,59.810574,1,1.0,1.0,1.0,1.0,62.16
2026-01-24 06:30:51.585,-0.040907886,-0.09866426,-0.08430129,0.23387492,-0.095887035,-0.47248966,-0.46428275,0.02525262,0.86896676,0.112713575,0.19417313,0.7005035,0.6049124,0.35659996,0.35488513,0.59863997,0.55732185,0.40231508,0.40463614,0.57104456,743.8961,730.2661,732.12476,738.0547,765.8457,769.4744,753.98584,1307.7703,-0.40252685546875,-0.03082275390625,0.93121337890625,0.216827392578125,-0.538330078125,0.2691650390625,5.605748754261736,5.811620532627614,4.09952173187421,3.7415807166869324,0.0,0.0,0.0,0.0,0.0,0.0,0.0,0.0,0.0,0.0,0.0,0.0,60.57671,1,1.0,1.0,1.0,1.0,62.16
2026-01-24 06:30:52.596,-0.026566563,-0.38510284,-0.30531853,-0.067234896,0.14543967,-0.44766942,-0.3907551,0.029644316,0.862915,0.099138,0.12757568,0.7147262,0.5990484,0.3530927,0.28583533,0.5334434,0.5189553,0.33550078,0.372399,0.58696723,738.0547,730.9742,736.01904,738.85126,690.0842,684.50836,654.06213,1240.7709,-0.401611328125,-0.02764892578125,0.93463134765625,0.179443359375,-0.874786376953125,0.19439697265625,5.602391817466562,5.804784588608349,4.0980874043344535,3.7366063467086286,0.0,0.0,0.0,0.0,0.0,0.0,0.0,0.0,0.0,0.0,0.0,0.0,60.74686,1,1.0,1.0,1.0,1.0,62.16
2026-01-24 06:30:53.603,0.042582076,-0.17668308,-0.13283344,-0.011759145,-0.110107504,-0.38797173,-0.4130986,-0.08125765,0.89315253,-0.050774965,0.1696507,0.7294391,0.5074705,0.18801938,0.2681661,0.4795798,0.47993463,0.24480839,0.22835687,0.43921998,738.1432,736.8156,743.5421,737.0811,601.4008,591.3111,578.47766,987.9082,-0.40216064453125,-0.03826904296875,0.93310546875,0.231781005859375,-0.605621337890625,-0.61309814453125,5.596623989700308,5.800451088381852,4.090610590563384,3.7294652266170756,0.0,0.0,0.0,0.0,0.0,0.0,0.0,0.0,0.0,0.0,0.0,0.0,62.24624,1,1.0,1.0,1.0,1.0,62.16
2026-01-24 06:30:54.611,0.22018048,-0.18913333,-0.073545404,0.14304577,-0.19120912,-0.5712481,-0.4752617,-0.14885162,0.9075497,-0.08969565,-0.014338955,0.7933192,0.47535816,0.2190716,0.20861667,0.388523,0.43293557,0.24059276,0.1680678,0.4425683,734.51447,734.51447,728.319,738.4972,763.102,768.8549,769.3859,1344.6774,-0.4014892578125,-0.03125,0.9403076171875,0.16448974609375,-0.456085205078125,0.097198486328125,5.58051069308347,5.787236964451756,4.073673318551367,3.714603151896622,0.0,0.0,0.0,0.0,0.0,0.0,0.0,0.0,0.0,0.0,0.0,0.0,64.35161,1,1.0,1.0,1.0,1.0,62.16
2026-01-24 06:30:55.612,0.092052735,-0.67258054,-0.07035886,0.34173396,-0.06327775,-0.68641675,-0.5193743,0.18506457,0.7341697,-0.05311167,-0.004340872,0.63162184,0.4804178,0.20813233,0.267921,0.46421915,0.36180967,0.22302647,0.12497097,0.3200766,736.6386,732.30176,729.20404,742.126,798.8586,787.2642,749.91455,1218.5558,-0.3983154296875,-0.02398681640625,0.93707275390625,0.426177978515625,-0.381317138671875,0.770111083984375,5.578160837326848,5.78873232720597,4.067630832320053,3.712375366568915,0.0,0.0,0.0,0.0,0.0,0.0,0.0,0.0,0.0,0.0,0.0,0.0,65.08077,1,1.0,1.0,1.0,1.0,62.17
2026-01-24 06:30:56.621,-0.059755266,-0.4588259,-0.32206428,-0.048811596,-0.22711848,-0.73304,-0.52431947,-0.042743023,0.7008484,-0.09280457,-0.20195982,0.44051605,0.37239566,0.1450887,0.07577585,0.34856617,0.3659841,0.22979964,0.18554823,0.34521666,741.595,733.0983,724.51324,740.9754,480.76666,468.72977,503.24725,508.91168,-0.40643310546875,-0.045654296875,0.93218994140625,0.545806884765625,0.04486083984375,-0.76263427734375,5.585668168705148,5.803380778675822,4.075962139093532,3.7231785995279307,0.0,0.0,0.0,0.0,0.0,0.0,0.0,0.0,0.0,0.0,0.0,0.0,64.84413,1,1.0,1.0,1.0,1.0,62.17
2026-01-24 06:30:57.628,-0.0404362,-0.3590685,-0.12908366,-0.01250753,-0.29985926,-0.7288941,-0.5503632,0.051804017,0.5637242,0.110100605,0.11776737,0.6373619,0.4140202,0.25246784,0.21076919,0.5305978,0.4563068,0.24360725,0.22005537,0.4813156,732.03625,729.8236,732.8328,729.5581,759.65027,759.9158,748.6755,1236.2571,-0.40570068359375,-0.03466796875,0.92938232421875,0.5084228515625,-0.538330078125,0.545806884765625,5.586492144100327,5.808751877548101,4.071170874758601,3.719852180339985,0.0,0.0,0.0,0.0,0.0,0.0,0.0,0.0,0.0,0.0,0.0,0.0,65.6138,1,1.0,1.0,1.0,1.0,62.17
2026-01-24 06:30:58.638,-0.04421387,-0.16936325,-0.22174504,0.07888696,-0.068049654,-0.34755498,-0.18755917,0.29047468,0.6398376,0.22386298,0.31861836,0.6952008,0.8270448,0.6171204,0.6099764,0.8502794,0.8767064,0.65489477,0.61483413,0.8287449,725.8408,718.31775,716.1051,725.7523,557.5017,547.2349,580.69037,619.1021,-0.400146484375,-0.03717041015625,0.9302978515625,0.4486083984375,-1.51031494140625,0.545806884765625,5.589788045681043,5.801336098991489,4.070835181079084,3.7111241446725316,0.0,0.0,0.0,0.0,0.0,0.0,0.0,0.0,0.0,0.0,0.0,0.0,65.691475,1,1.0,1.0,1.0,1.0,62.17
2026-01-24 06:30:59.650,-0.01596828,-0.40414903,-0.32662314,0.027458703,-0.05204009,-0.31971735,-0.27412722,0.15620013,0.67597663,0.45220658,0.37971893,0.76867026,0.7730364,0.5330331,0.5843092,0.7907448,0.80120707,0.6328298,0.57527506,0.789352,723.1856,713.0074,714.33496,723.0086,739.8248,744.8697,756.0215,1281.3954,-0.396484375,-0.031982421875,0.9393310546875,0.1495361328125,-0.770111083984375,-0.471038818359375,5.600072479317168,5.801946451136065,4.073856424194741,3.7066075388026607,0.0,0.0,0.0,0.0,0.0,0.0,0.0,0.0,0.0,0.0,0.0,0.0,64.49133,1,1.0,1.0,1.0,1.0,62.17
2026-01-24 06:31:00.654,0.12795071,-0.53470373,-0.4269811,0.058606155,0.17568916,-0.1563135,-0.20946229,0.28646687,0.616744,0.41914684,0.3753709,0.78127295,0.8528522,0.68219185,0.67379063,0.8668979,0.77761286,0.63081396,0.6171305,0.7713649,710.1752,695.1291,719.8224,720.2649,756.3755,766.6423,750.7111,1212.3604,-0.403076171875,-0.03851318359375,0.9390869140625,0.19439697265625,0.179443359375,-0.5084228515625,5.611943828529195,5.809301194478221,4.084690174760985,3.7142064230026466,0.0,0.0,0.0,0.0,0.0,0.0,0.0,0.0,0.0,0.0,0.0,0.0,64.40149,1,1.0,1.0,1.0,1.0,62.17
2026-01-24 06:31:01.669,0.1436531,-0.43667185,-0.2547242,0.053987373,0.25190032,-0.20589137,-0.12481405,0.31988654,0.7284714,0.390168,0.38693234,0.74247426,0.91257095,0.71808475,0.7413795,0.91378057,0.9104185,0.6957398,0.7305533,0.9364321,725.04425,699.0234,723.8937,729.02704,589.6295,581.92944,572.8133,956.1344,-0.40423583984375,-0.033447265625,0.93536376953125,0.179443359375,0.052337646484375,0.2093505859375,5.622686026273753,5.818914240755311,4.095218749254942,3.7227818706339555,0.0,0.0,0.0,0.0,0.0,0.0,0.0,0.0,0.0,0.0,0.0,0.0,64.5484,1,1.0,1.0,1.0,1.0,62.13
2026-01-24 06:31:02.683,-0.15007481,0.97880375,-0.64274675,-0.10552301,0.00997576,0.6012664,-0.3408347,0.051724337,0.70396984,0.5407708,0.28559276,0.6200333,0.88969624,0.737089,0.7178009,0.8795469,0.9022369,0.69084305,0.687043,0.90231735,727.96497,653.00006,721.5925,726.7259,783.547,787.4412,765.6687,1185.1005,-0.405029296875,-0.03619384765625,0.9342041015625,-0.13458251953125,-0.844879150390625,0.13458251953125,5.634862551558067,5.83203681186372,4.106296640679017,3.7341954557375487,0.0,0.0,0.0,0.0,0.0,0.0,0.0,0.0,0.0,0.0,0.0,0.0,63.63015,1,1.0,1.0,1.0,1.0,62.13
2026-01-24 06:31:03.687,-0.11301372,0.97880375,-0.50807995,-0.032553043,-0.21269856,0.6012664,-0.40292704,0.14227185,0.7591614,0.5407708,0.3261107,0.6737459,0.7693788,0.737089,0.5656267,0.74090004,0.7604414,0.69084305,0.59284985,0.78501195,724.3362,682.8267,726.5489,716.3706,743.45355,747.7904,746.10876,1200.058,-0.406494140625,-0.03033447265625,0.9315185546875,0.16448974609375,-0.97198486328125,-0.082244873046875,5.633763917697828,5.828710392675775,4.104099372958539,3.7317235295520113,0.0,0.0,0.0,0.0,0.0,0.0,0.0,0.0,0.0,0.0,0.0,0.0,63.21109,1,1.0,1.0,1.0,1.0,62.13
2026-01-24 06:31:04.701,-0.04241732,0.97880375,-0.26487613,-0.06929116,-0.28446865,0.6012664,-0.2328213,-0.021227375,0.8178168,0.5407708,0.29898778,0.98971134,0.7569125,0.737089,0.5058524,0.7512421,0.751764,0.69084305,0.5375379,0.7872347,725.9293,735.0455,724.86725,728.58453,768.41235,767.4388,745.1352,1196.6062,-0.40130615234375,-0.0311279296875,0.93487548828125,-0.04486083984375,-0.112152099609375,-0.605621337890625,5.633092530338793,5.828801945497461,4.10541163006938,3.7338292444508023,0.0,0.0,0.0,0.0,0.0,0.0,0.0,0.0,0.0,0.0,0.0,0.0,64.2388,1,1.0,1.0,1.0,1.0,62.13
2026-01-24 06:31:05.717,0.058764406,0.97880375,0.01491422,0.21326292,-0.030310819,0.6012664,-0.2173637,-6.9767726E-4,0.80387264,0.5407708,0.32704717,0.93059576,0.7549481,0.737089,0.52328086,0.796155,0.676125,0.69084305,0.47562742,0.7049839,729.11554,715.48553,727.0799,727.1684,761.24335,749.56055,734.4259,1156.1588,-0.40399169921875,-0.03228759765625,0.9329833984375,-0.0299072265625,-0.59814453125,-0.575714111328125,5.63959278067854,5.837316357914312,4.116031757385023,3.7464635338435497,0.0,0.0,0.0,0.0,0.0,0.0,0.0,0.0,0.0,0.0,0.0,0.0,64.91874,1,1.0,1.0,1.0,1.0,62.13
2026-01-24 06:31:06.731,0.02261491,0.97880375,-0.2409536,-0.021830618,0.14466622,0.6012664,-0.5259693,0.0017799565,0.7517085,0.5407708,0.14068569,0.6609677,0.5812451,0.737089,0.3179786,0.60598516,0.6646363,0.69084305,0.44202533,0.6851472,712.9189,712.1223,716.3706,714.512,777.52856,769.8285,800.8942,1426.8113,-0.40411376953125,-0.02581787109375,0.9365234375,0.49346923828125,-0.500946044921875,0.964508056640625,5.65323415110984,5.853704312996209,4.1338845576139045,3.764957203824238,0.0,0.0,0.0,0.0,0.0,0.0,0.0,0.0,0.0,0.0,0.0,0.0,65.04389,1,1.0,1.0,1.0,1.0,62.12
2026-01-24 06:31:07.743,0.03963866,0.97880375,-0.42622727,0.06849108,0.11201623,0.6012664,-0.49085936,0.13238746,0.53778076,0.5407708,0.13369709,0.6182503,0.51211196,0.737089,0.34034652,0.6026505,0.58544147,0.69084305,0.36386895,0.5681043,725.48676,712.4763,723.5397,733.45233,715.9281,697.5188,684.50836,1239.7089,-0.4075927734375,-0.02886962890625,0.9378662109375,0.31402587890625,-0.538330078125,0.40374755859375,5.656987816798989,5.857457978685359,4.139560832558472,3.7707555491977205,0.0,0.0,0.0,0.0,0.0,0.0,0.0,0.0,0.0,0.0,0.0,0.0,65.607925,1,1.0,1.0,1.0,1.0,62.12
2026-01-24 06:31:08.760,0.07095601,-0.06575728,-0.2166151,0.0021561552,0.08600823,-0.42507055,-0.31648576,0.023814535,0.574978,0.053347737,0.10438376,0.58845115,0.4978128,0.110747345,0.3257933,0.5989897,0.45145357,0.02500513,0.28363016,0.4610117,726.3718,720.4419,723.2741,728.23047,662.9128,654.23914,651.3184,1119.3402,-0.40863037109375,-0.031982421875,0.93975830078125,-0.40374755859375,0.059814453125,-0.3887939453125,5.661534940276089,5.862707007128722,4.1470986815440005,3.778079774932647,0.0,0.0,0.0,0.0,0.0,0.0,0.0,0.0,0.0,0.0,0.0,0.0,65.44574,1,1.0,1.0,1.0,1.0,62.12
2026-01-24 06:31:09.775,0.18048953,-0.24390024,-0.39630774,0.3606212,0.016345127,-0.26368785,-0.5251814,-0.13325621,0.43966845,0.05658642,-0.11819087,0.3747657,0.4745606,0.22825187,0.19600748,0.571499,0.41640705,0.2851115,0.23014951,0.4683036,724.95575,720.61896,722.47754,725.13275,747.6134,747.17084,760.1813,1282.4574,-0.4095458984375,-0.0350341796875,0.92974853515625,0.11962890625,-0.9869384765625,0.171966552734375,5.647649428986958,5.845617147080562,4.1331826526476405,3.764072193214601,0.0,0.0,0.0,0.0,0.0,0.0,0.0,0.0,0.0,0.0,0.0,0.0,64.46115,1,1.0,1.0,1.0,1.0,62.12
2026-01-24 06:31:10.793,0.31209326,-0.07015009,-0.3252521,0.33005562,0.019480733,-0.36925593,-0.48161235,0.11370977,0.39259318,-0.1168223,-0.28719667,0.6255721,0.37138212,0.13217284,0.08852079,0.48531893,0.36235133,0.14803004,0.038210332,0.246583,725.7523,723.8052,723.7167,724.2477,545.3763,521.8336,538.2958,782.04236,-0.40521240234375,-0.02545166015625,0.9327392578125,0.052337646484375,-1.547698974609375,0.067291259765625,5.609868631237632,5.805547528789071,4.081455308394726,3.719089240159264,0.0,0.0,0.0,0.0,0.0,0.0,0.0,0.0,0.0,0.0,0.0,0.0,64.40902,1,1.0,1.0,1.0,1.0,62.12
