TimeStamp,Delta_TP9,Delta_AF7,Delta_AF8,Delta_TP10,Theta_TP9,Theta_AF7,Theta_AF8,Theta_TP10,Alpha_TP9,Alpha_AF7,Alpha_AF8,Alpha_TP10,Beta_TP9,Beta_AF7,Beta_AF8,Beta_TP10,Gamma_TP9,Gamma_AF7,Gamma_AF8,Gamma_TP10,RAW_TP9,RAW_AF7,RAW_AF8,RAW_TP10,AUX_1,AUX_2,AUX_3,AUX_4,Accelerometer_X,Accelerometer_Y,Accelerometer_Z,Gyro_X,Gyro_Y,Gyro_Z,Optics1,Optics2,Optics3,Optics4,Optics5,Optics6,Optics7,Optics8,Optics9,Optics10,Optics11,Optics12,Optics13,Optics14,Optics15,Optics16,Heart_Rate,HeadBandOn,HSI_TP9,HSI_AF7,HSI_AF8,HSI_TP10,Battery,Elements
2026-01-20 05:30:48.466,,,,,,,,,,,,,,,,,,,,,,,,,,,,,,,,,,,,,,,,,,,,,,,,,,,,,,,,,,/muse/event/connected MuseS-0465
2026-01-20 05:30:48.470,,,,,,,,,,,,,,,,,,,,,,,,,,,,,,,,,,,,,,,,,,,,,,,,,,,,,,,,,,/muse/elements/blink
2026-01-20 05:30:48.472,0.0,0.0,-0.48223484,0.0,0.0,0.0,-0.23828705,0.0,0.0,0.0,-0.1701749,0.0,0.0,0.0,0.06665573,0.0,0.0,0.0,0.2256003,0.0,737.7892,734.60297,729.38104,725.5753,505.99097,493.8656,521.30255,674.2416,0.005126953125,0.0081787109375,1.02105712890625,-0.04486083984375,-0.91217041015625,0.127105712890625,5.60617600076294,5.7432000572205135,4.218265741601698,3.8643530505686288,0.0,0.0,0.0,0.0,0.0,0.0,0.0,0.0,0.0,0.0,0.0,0.0,81.64119,1,2.0,1.0,1.0,2.0,80.71
2026-01-20 05:30:48.899,,,,,,,,,,,,,,,,,,,,,,,,,,,,,,,,,,,,,,,,,,,,,,,,,,,,,,,,,,/muse/elements/blink
2026-01-20 05:30:49.478,0.0,0.0,-0.48223484,-0.029578196,0.0,0.0,-0.23828705,0.5962704,0.0,0.0,-0.1701749,1.3512204,0.0,0.0,0.06665573,1.7986238,0.0,0.0,0.2256003,1.8689269,733.7179,734.86847,737.7007,723.5397,788.0608,784.7861,761.33185,1192.6234,-0.00616455078125,-0.00274658203125,1.02081298828125,0.3887939453125,0.800018310546875,7.3870849609375,5.580480175476241,5.7215020384807955,4.1770974894499675,3.831760246048208,0.0,0.0,0.0,0.0,0.0,0.0,0.0,0.0,0.0,0.0,0.0,0.0,81.46867,1,1.0,1.0,1.0,1.0,80.71
2026-01-20 05:30:49.512,,,,,,,,,,,,,,,,,,,,,,,,,,,,,,,,,,,,,,,,,,,,,,,,,,,,,,,,,,/muse/elements/blink
2026-01-20 05:30:49.648,,,,,,,,,,,,,,,,,,,,,,,,,,,,,,,,,,,,,,,,,,,,,,,,,,,,,,,,,,/muse/elements/jaw_clench
2026-01-20 05:30:49.774,,,,,,,,,,,,,,,,,,,,,,,,,,,,,,,,,,,,,,,,,,,,,,,,,,,,,,,,,,/muse/elements/blink
2026-01-20 05:30:50.377,,,,,,,,,,,,,,,,,,,,,,,,,,,,,,,,,,,,,,,,,,,,,,,,,,,,,,,,,,/muse/elements/blink
2026-01-20 05:30:50.490,0.0,0.0,-0.48223484,0.0012267326,0.0,0.0,-0.23828705,0.526271,0.0,0.0,-0.1701749,1.2849896,0.0,0.0,0.06665573,1.7872165,0.0,0.0,0.2256003,1.8747231,740.00183,750.9766,745.3122,728.67303,744.2501,740.09033,744.2501,1197.4913,0.13482666015625,-0.01837158203125,1.0028076171875,3.7982177734375,-11.790924072265625,22.647247314453125,5.566777769830484,5.71497127053382,4.159763488543977,3.8209264954819635,0.0,0.0,0.0,0.0,0.0,0.0,0.0,0.0,0.0,0.0,0.0,0.0,80.408516,1,1.0,4.0,1.0,1.0,80.66
2026-01-20 05:30:51.160,,,,,,,,,,,,,,,,,,,,,,,,,,,,,,,,,,,,,,,,,,,,,,,,,,,,,,,,,,/muse/elements/blink
2026-01-20 05:30:51.502,0.0,0.0,-0.48223484,0.0012267326,0.0,0.0,-0.23828705,0.526271,0.0,0.0,-0.1701749,1.2849896,0.0,0.0,0.06665573,1.7872165,0.0,0.0,0.2256003,1.8747231,741.949,753.54333,760.3583,727.61096,740.8869,735.57654,743.9846,1202.9786,0.32586669921875,-0.04217529296875,0.8709716796875,-3.760833740234375,-6.50482177734375,-7.319793701171875,5.549932050640154,5.701299382495291,4.134739050616313,3.801547814891639,0.0,0.0,0.0,0.0,0.0,0.0,0.0,0.0,0.0,0.0,0.0,0.0,79.38444,1,1.0,1.0,1.0,1.0,80.66
2026-01-20 05:30:51.660,,,,,,,,,,,,,,,,,,,,,,,,,,,,,,,,,,,,,,,,,,,,,,,,,,,,,,,,,,/muse/elements/jaw_clench
2026-01-20 05:30:51.795,,,,,,,,,,,,,,,,,,,,,,,,,,,,,,,,,,,,,,,,,,,,,,,,,,,,,,,,,,/muse/elements/blink
2026-01-20 05:30:52.136,,,,,,,,,,,,,,,,,,,,,,,,,,,,,,,,,,,,,,,,,,,,,,,,,,,,,,,,,,/muse/elements/blink
2026-01-20 05:30:52.508,0.0,0.0,-0.48223484,0.0012267326,0.0,0.0,-0.23828705,0.526271,0.0,0.0,-0.1701749,1.2849896,0.0,0.0,0.06665573,1.7872165,0.0,0.0,0.2256003,1.8747231,749.0295,737.2581,728.93854,738.93976,771.24457,774.96185,749.56055,1194.7476,0.56494140625,-0.11932373046875,0.82867431640625,-11.52923583984375,-8.725433349609375,-3.985137939453125,5.50034093889326,5.658452661945974,4.063388884915242,3.747195956417042,0.0,0.0,0.0,0.0,0.0,0.0,0.0,0.0,0.0,0.0,0.0,0.0,76.25047,1,2.0,4.0,2.0,2.0,80.66
2026-01-20 05:30:52.628,,,,,,,,,,,,,,,,,,,,,,,,,,,,,,,,,,,,,,,,,,,,,,,,,,,,,,,,,,/muse/elements/blink
2026-01-20 05:30:53.403,,,,,,,,,,,,,,,,,,,,,,,,,,,,,,,,,,,,,,,,,,,,,,,,,,,,,,,,,,/muse/elements/blink
2026-01-20 05:30:53.521,0.0,0.0,-0.48223484,0.07487453,0.0,0.0,-0.23828705,0.6554278,0.0,0.0,-0.1701749,1.2903898,0.0,0.0,0.06665573,1.7253885,0.0,0.0,0.2256003,1.7947485,757.26056,736.9041,733.6294,749.56055,746.63983,749.3835,750.9766,1209.9707,0.650634765625,-0.10076904296875,0.8486328125,2.0635986328125,10.7366943359375,5.86181640625,5.472600433922228,5.639409675035167,4.0072670052213715,3.7040440597954367,0.0,0.0,0.0,0.0,0.0,0.0,0.0,0.0,0.0,0.0,0.0,0.0,73.96888,1,1.0,1.0,1.0,1.0,80.66
2026-01-20 05:30:53.639,,,,,,,,,,,,,,,,,,,,,,,,,,,,,,,,,,,,,,,,,,,,,,,,,,,,,,,,,,/muse/elements/blink
2026-01-20 05:30:53.972,,,,,,,,,,,,,,,,,,,,,,,,,,,,,,,,,,,,,,,,,,,,,,,,,,,,,,,,,,/muse/elements/blink
2026-01-20 05:30:54.156,,,,,,,,,,,,,,,,,,,,,,,,,,,,,,,,,,,,,,,,,,,,,,,,,,,,,,,,,,/muse/elements/blink
2026-01-20 05:30:54.519,,,,,,,,,,,,,,,,,,,,,,,,,,,,,,,,,,,,,,,,,,,,,,,,,,,,,,,,,,/muse/elements/blink
2026-01-20 05:30:54.535,0.0,0.0,-0.48223484,0.03876165,0.0,0.0,-0.23828705,0.48329365,0.0,0.0,-0.1701749,1.2160126,0.0,0.0,0.06665573,1.6037174,0.0,0.0,0.2256003,1.6741734,781.77686,734.69147,726.3718,774.87335,748.2329,737.0811,748.587,1221.3881,-0.1177978515625,-0.16217041015625,0.97125244140625,7.716064453125,46.214141845703125,-35.03631591796875,5.533879789237775,5.696233459695301,4.064914765276685,3.7517430798941422,0.0,0.0,0.0,0.0,0.0,0.0,0.0,0.0,0.0,0.0,0.0,0.0,73.67993,1,1.0,1.0,1.0,1.0,80.66
2026-01-20 05:30:55.039,,,,,,,,,,,,,,,,,,,,,,,,,,,,,,,,,,,,,,,,,,,,,,,,,,,,,,,,,,/muse/elements/blink
2026-01-20 05:30:55.387,,,,,,,,,,,,,,,,,,,,,,,,,,,,,,,,,,,,,,,,,,,,,,,,,,,,,,,,,,/muse/elements/blink
2026-01-20 05:30:55.548,0.0,0.0,-0.48223484,0.03876165,0.0,0.0,-0.23828705,0.48329365,0.0,0.0,-0.1701749,1.2160126,0.0,0.0,0.06665573,1.6037174,0.0,0.0,0.2256003,1.6741734,726.2833,739.20526,722.7431,712.5649,731.50525,734.77997,717.2557,1138.723,-0.360595703125,0.0157470703125,0.96807861328125,0.0897216796875,-5.12908935546875,4.94964599609375,5.692540829220609,5.835668407123954,4.259403476146199,3.9040564575733736,0.0,0.0,0.0,0.0,0.0,0.0,0.0,0.0,0.0,0.0,0.0,0.0,73.00809,1,1.0,1.0,1.0,1.0,80.64
2026-01-20 05:30:55.894,,,,,,,,,,,,,,,,,,,,,,,,,,,,,,,,,,,,,,,,,,,,,,,,,,,,,,,,,,/muse/elements/blink
2026-01-20 05:30:56.219,,,,,,,,,,,,,,,,,,,,,,,,,,,,,,,,,,,,,,,,,,,,,,,,,,,,,,,,,,/muse/elements/blink
2026-01-20 05:30:56.520,,,,,,,,,,,,,,,,,,,,,,,,,,,,,,,,,,,,,,,,,,,,,,,,,,,,,,,,,,/muse/elements/blink
2026-01-20 05:30:56.548,0.0,0.0,-0.48223484,0.03876165,0.0,0.0,-0.23828705,0.48329365,0.0,0.0,-0.1701749,1.2160126,0.0,0.0,0.06665573,1.6037174,0.0,0.0,0.2256003,1.6741734,763.102,744.5157,730.6202,758.49963,738.3202,754.7824,731.1512,1137.307,-0.3448486328125,0.00909423828125,0.97998046875,-0.3887939453125,13.08441162109375,-5.211334228515625,5.74143003600124,5.864202369882936,4.324497532365353,3.9354895930190974,0.0,0.0,0.0,0.0,0.0,0.0,0.0,0.0,0.0,0.0,0.0,0.0,71.61778,1,2.0,1.0,1.0,2.0,80.64
2026-01-20 05:30:56.750,,,,,,,,,,,,,,,,,,,,,,,,,,,,,,,,,,,,,,,,,,,,,,,,,,,,,,,,,,/muse/elements/blink
2026-01-20 05:30:57.563,0.0,0.0,-0.48223484,0.03876165,0.0,0.0,-0.23828705,0.48329365,0.0,0.0,-0.1701749,1.2160126,0.0,0.0,0.06665573,1.6037174,0.0,0.0,0.2256003,1.6741734,709.82117,718.6718,727.61096,702.3866,580.60187,580.51337,617.77454,616.80096,-0.36041259765625,-0.022705078125,0.9554443359375,-1.562652587890625,1.33087158203125,2.2430419921875,5.7121636506687645,5.837072217056481,4.276096607300384,3.900028133419164,0.0,0.0,0.0,0.0,0.0,0.0,0.0,0.0,0.0,0.0,0.0,0.0,72.61935,1,2.0,1.0,1.0,2.0,80.64
2026-01-20 05:30:57.651,,,,,,,,,,,,,,,,,,,,,,,,,,,,,,,,,,,,,,,,,,,,,,,,,,,,,,,,,,/muse/elements/jaw_clench
2026-01-20 05:30:58.277,,,,,,,,,,,,,,,,,,,,,,,,,,,,,,,,,,,,,,,,,,,,,,,,,,,,,,,,,,/muse/elements/blink
2026-01-20 05:30:58.578,0.0,0.0,-0.48223484,0.03876165,0.0,0.0,-0.23828705,0.48329365,0.0,0.0,-0.1701749,1.2160126,0.0,0.0,0.06665573,1.6037174,0.0,0.0,0.2256003,1.6741734,740.35583,732.9213,724.69025,723.9822,732.21326,736.10754,710.0867,1291.9276,-0.3670654296875,-0.0159912109375,0.94415283203125,-0.8074951171875,-0.73272705078125,-0.426177978515625,5.746251817943399,5.868322246858832,4.321079560355721,3.937931001597406,0.0,0.0,0.0,0.0,0.0,0.0,0.0,0.0,0.0,0.0,0.0,0.0,75.66817,1,2.0,1.0,1.0,2.0,80.64
2026-01-20 05:30:59.591,0.0,0.0,-0.48223484,0.03876165,0.0,0.0,-0.23828705,0.48329365,0.0,0.0,-0.1701749,1.2160126,0.0,0.0,0.06665573,1.6037174,0.0,0.0,0.2256003,1.6741734,708.9361,713.4499,719.7339,700.35095,738.1432,739.8248,750.6226,1253.3389,-0.362548828125,-0.02252197265625,0.95166015625,1.495361328125,-2.19818115234375,4.6356201171875,5.742376081825334,5.850042200128746,4.315861049519586,3.921207352835992,0.0,0.0,0.0,0.0,0.0,0.0,0.0,0.0,0.0,0.0,0.0,0.0,77.639175,1,2.0,1.0,1.0,2.0,80.64
2026-01-20 05:30:59.843,,,,,,,,,,,,,,,,,,,,,,,,,,,,,,,,,,,,,,,,,,,,,,,,,,,,,,,,,,/muse/elements/jaw_clench
2026-01-20 05:30:59.993,,,,,,,,,,,,,,,,,,,,,,,,,,,,,,,,,,,,,,,,,,,,,,,,,,,,,,,,,,/muse/elements/blink
2026-01-20 05:31:00.494,,,,,,,,,,,,,,,,,,,,,,,,,,,,,,,,,,,,,,,,,,,,,,,,,,,,,,,,,,/muse/elements/jaw_clench
2026-01-20 05:31:00.597,0.0,0.0,-0.48223484,0.03876165,0.0,0.0,-0.23828705,0.48329365,0.0,0.0,-0.1701749,1.2160126,0.0,0.0,0.06665573,1.6037174,0.0,0.0,0.2256003,1.6741734,727.69946,719.9109,729.20404,723.8937,699.55444,696.8107,700.528,854.5291,-0.36981201171875,-0.03436279296875,0.9471435546875,-0.605621337890625,-1.016845703125,-0.919647216796875,5.738073099206066,5.85181222134802,4.311771690150919,3.924594807238395,0.0,0.0,0.0,0.0,0.0,0.0,0.0,0.0,0.0,0.0,0.0,0.0,78.74367,1,2.0,1.0,1.0,2.0,80.64
2026-01-20 05:31:00.891,,,,,,,,,,,,,,,,,,,,,,,,,,,,,,,,,,,,,,,,,,,,,,,,,,,,,,,,,,/muse/elements/blink
2026-01-20 05:31:01.600,0.0,0.0,-0.48223484,0.03876165,0.0,0.0,-0.23828705,0.48329365,0.0,0.0,-0.1701749,1.2160126,0.0,0.0,0.06665573,1.6037174,0.0,0.0,0.2256003,1.6741734,732.30176,735.2225,729.38104,727.4339,663.2668,641.4057,633.6172,1075.3525,-0.3782958984375,-0.02606201171875,0.94189453125,0.70281982421875,-0.635528564453125,1.173858642578125,5.7612054454855395,5.871923324511838,4.343265860811101,3.9505652909901534,0.0,0.0,0.0,0.0,0.0,0.0,0.0,0.0,0.0,0.0,0.0,0.0,79.4442,1,2.0,1.0,1.0,2.0,80.63
2026-01-20 05:31:01.654,,,,,,,,,,,,,,,,,,,,,,,,,,,,,,,,,,,,,,,,,,,,,,,,,,,,,,,,,,/muse/elements/jaw_clench
2026-01-20 05:31:02.020,,,,,,,,,,,,,,,,,,,,,,,,,,,,,,,,,,,,,,,,,,,,,,,,,,,,,,,,,,/muse/elements/blink
2026-01-20 05:31:02.400,,,,,,,,,,,,,,,,,,,,,,,,,,,,,,,,,,,,,,,,,,,,,,,,,,,,,,,,,,/muse/elements/jaw_clench
2026-01-20 05:31:02.504,,,,,,,,,,,,,,,,,,,,,,,,,,,,,,,,,,,,,,,,,,,,,,,,,,,,,,,,,,/muse/elements/jaw_clench
2026-01-20 05:31:02.613,0.0,0.0,-0.48223484,0.03876165,0.0,0.0,-0.23828705,0.48329365,0.0,0.0,-0.1701749,1.2160126,0.0,0.0,0.06665573,1.6037174,0.0,0.0,0.2256003,1.6741734,740.17883,738.0547,728.23047,738.93976,752.0387,754.6054,744.1616,1209.1742,-0.38128662109375,-0.0299072265625,0.94158935546875,-0.037384033203125,-0.64300537109375,-1.0467529296875,5.730626803042224,5.836644970555278,4.30023603461841,3.911075507236011,0.0,0.0,0.0,0.0,0.0,0.0,0.0,0.0,0.0,0.0,0.0,0.0,79.65789,1,2.0,1.0,1.0,2.0,80.63
2026-01-20 05:31:03.268,,,,,,,,,,,,,,,,,,,,,,,,,,,,,,,,,,,,,,,,,,,,,,,,,,,,,,,,,,/muse/elements/blink
2026-01-20 05:31:03.627,0.0,0.0,-0.48223484,0.03876165,0.0,0.0,-0.23828705,0.48329365,0.0,0.0,-0.1701749,1.2160126,0.0,0.0,0.06665573,1.6037174,0.0,0.0,0.2256003,1.6741734,734.3374,742.0375,747.6134,734.51447,758.0571,756.81805,736.46155,1199.0845,-0.37884521484375,-0.03216552734375,0.9434814453125,0.321502685546875,-0.10467529296875,0.097198486328125,5.744298691080752,5.851415492454045,4.320011444102711,3.929111413108266,0.0,0.0,0.0,0.0,0.0,0.0,0.0,0.0,0.0,0.0,0.0,0.0,79.94777,1,2.0,1.0,1.0,2.0,80.63
2026-01-20 05:31:03.785,,,,,,,,,,,,,,,,,,,,,,,,,,,,,,,,,,,,,,,,,,,,,,,,,,,,,,,,,,/muse/elements/jaw_clench
2026-01-20 05:31:04.629,,,,,,,,,,,,,,,,,,,,,,,,,,,,,,,,,,,,,,,,,,,,,,,,,,,,,,,,,,/muse/elements/jaw_clench
2026-01-20 05:31:04.634,0.0,0.0,-0.48223484,0.03876165,0.0,0.0,-0.23828705,0.48329365,0.0,0.0,-0.1701749,1.2160126,0.0,0.0,0.06665573,1.6037174,0.0,0.0,0.2256003,1.6741734,727.4339,729.46954,720.79596,721.23846,747.25934,746.55133,754.7824,1190.0568,-0.3717041015625,-0.01751708984375,0.958740234375,1.143951416015625,0.34393310546875,-1.06170654296875,5.7551934768614545,5.8557184750733136,4.335026106859309,3.939914646067282,0.0,0.0,0.0,0.0,0.0,0.0,0.0,0.0,0.0,0.0,0.0,0.0,79.30704,1,2.0,1.0,1.0,2.0,80.63
2026-01-20 05:31:04.694,,,,,,,,,,,,,,,,,,,,,,,,,,,,,,,,,,,,,,,,,,,,,,,,,,,,,,,,,,/muse/elements/blink
2026-01-20 05:31:05.012,,,,,,,,,,,,,,,,,,,,,,,,,,,,,,,,,,,,,,,,,,,,,,,,,,,,,,,,,,/muse/elements/blink
2026-01-20 05:31:05.509,,,,,,,,,,,,,,,,,,,,,,,,,,,,,,,,,,,,,,,,,,,,,,,,,,,,,,,,,,/muse/elements/jaw_clench
2026-01-20 05:31:05.648,,,,,,,,,,,,,,,,,,,,,,,,,,,,,,,,,,,,,,,,,,,,,,,,,,,,,,,,,,/muse/elements/blink
2026-01-20 05:31:05.650,0.0,0.0,-0.48223484,0.03876165,0.0,0.0,-0.23828705,0.48329365,0.0,0.0,-0.1701749,1.2160126,0.0,0.0,0.06665573,1.6037174,0.0,0.0,0.2256003,1.6741734,725.6638,726.1063,720.79596,720.2649,750.44556,754.6939,776.46643,1279.5367,-0.384765625,-0.0224609375,0.9437255859375,-0.530853271484375,-0.31402587890625,-0.0897216796875,5.75317931478435,5.839361037598646,4.337925279546051,3.931827480151634,0.0,0.0,0.0,0.0,0.0,0.0,0.0,0.0,0.0,0.0,0.0,0.0,78.85159,1,2.0,1.0,1.0,2.0,80.63
2026-01-20 05:31:06.005,,,,,,,,,,,,,,,,,,,,,,,,,,,,,,,,,,,,,,,,,,,,,,,,,,,,,,,,,,/muse/elements/blink
2026-01-20 05:31:06.498,,,,,,,,,,,,,,,,,,,,,,,,,,,,,,,,,,,,,,,,,,,,,,,,,,,,,,,,,,/muse/elements/blink
2026-01-20 05:31:06.658,0.0,0.0,-0.48223484,0.03876165,0.0,0.0,-0.23828705,0.48329365,0.0,0.0,-0.1701749,1.2160126,0.0,0.0,0.06665573,1.6037174,0.0,0.0,0.2256003,1.6741734,722.30054,722.30054,729.29254,714.512,763.89856,766.9078,787.7068,1373.3535,-0.3731689453125,-0.02484130859375,0.95123291015625,0.31402587890625,-1.577606201171875,-0.22430419921875,5.724065517488019,5.819768733757718,4.296940133037694,3.9062232076866223,0.0,0.0,0.0,0.0,0.0,0.0,0.0,0.0,0.0,0.0,0.0,0.0,78.35482,1,2.0,1.0,1.0,2.0,80.63
2026-01-20 05:31:07.672,0.0,0.0,-0.48223484,0.03876165,0.0,0.0,-0.23828705,0.48329365,0.0,0.0,-0.1701749,1.2160126,0.0,0.0,0.06665573,1.6037174,0.0,0.0,0.2256003,1.6741734,733.36383,729.5581,721.681,727.4339,496.52078,476.78387,507.49557,594.2318,-0.38543701171875,-0.0333251953125,0.941162109375,-0.04486083984375,-0.25421142578125,0.351409912109375,5.740758648642205,5.832067329470949,4.321506806856925,3.923770831843216,0.0,0.0,0.0,0.0,0.0,0.0,0.0,0.0,0.0,0.0,0.0,0.0,77.63871,1,2.0,1.0,1.0,2.0,80.59
2026-01-20 05:31:07.908,,,,,,,,,,,,,,,,,,,,,,,,,,,,,,,,,,,,,,,,,,,,,,,,,,,,,,,,,,/muse/elements/jaw_clench
2026-01-20 05:31:07.974,,,,,,,,,,,,,,,,,,,,,,,,,,,,,,,,,,,,,,,,,,,,,,,,,,,,,,,,,,/muse/elements/blink
2026-01-20 05:31:08.404,,,,,,,,,,,,,,,,,,,,,,,,,,,,,,,,,,,,,,,,,,,,,,,,,,,,,,,,,,/muse/elements/jaw_clench
2026-01-20 05:31:08.505,,,,,,,,,,,,,,,,,,,,,,,,,,,,,,,,,,,,,,,,,,,,,,,,,,,,,,,,,,/muse/elements/blink
2026-01-20 05:31:08.687,0.0,0.0,-0.48223484,0.03876165,0.0,0.0,-0.23828705,0.48329365,0.0,0.0,-0.1701749,1.2160126,0.0,0.0,0.06665573,1.6037174,0.0,0.0,0.2256003,1.6741734,717.1672,704.7763,703.27167,716.1936,760.62384,751.5962,754.6939,1235.4606,-0.37701416015625,-0.0169677734375,0.94940185546875,0.2093505859375,-0.396270751953125,-0.306549072265625,5.768438118398779,5.854192594711871,4.366550795126719,3.954044298214243,0.0,0.0,0.0,0.0,0.0,0.0,0.0,0.0,0.0,0.0,0.0,0.0,77.39371,1,2.0,1.0,1.0,2.0,80.59
2026-01-20 05:31:08.769,,,,,,,,,,,,,,,,,,,,,,,,,,,,,,,,,,,,,,,,,,,,,,,,,,,,,,,,,,/muse/elements/blink
2026-01-20 05:31:09.006,,,,,,,,,,,,,,,,,,,,,,,,,,,,,,,,,,,,,,,,,,,,,,,,,,,,,,,,,,/muse/elements/blink
2026-01-20 05:31:09.505,,,,,,,,,,,,,,,,,,,,,,,,,,,,,,,,,,,,,,,,,,,,,,,,,,,,,,,,,,/muse/elements/jaw_clench
2026-01-20 05:31:09.701,0.0067911744,0.0,-0.48223484,0.03876165,0.9751259,0.0,-0.23828705,0.48329365,1.3021667,0.0,-0.1701749,1.2160126,1.7787023,0.0,0.06665573,1.6037174,1.7715956,0.0,0.2256003,1.6741734,711.5913,704.33374,698.9349,705.8384,770.53656,763.72156,746.46277,1250.7721,-0.3717041015625,-0.0308837890625,0.94561767578125,0.07476806640625,-1.547698974609375,-0.471038818359375,5.714391435996472,5.798070715018,4.294773382924445,3.893405812650502,0.0,0.0,0.0,0.0,0.0,0.0,0.0,0.0,0.0,0.0,0.0,0.0,77.26571,1,1.0,1.0,1.0,1.0,80.59
2026-01-20 05:31:10.715,-0.11412426,0.0,-0.48223484,-0.16778249,0.5362464,0.0,-0.23828705,0.45298725,0.98656225,0.0,-0.1701749,0.97574544,1.4459507,0.0,0.06665573,1.5267406,1.4393395,0.0,0.2256003,1.5119774,701.9441,699.2004,692.56244,692.73944,730.4431,739.8248,738.1432,1162.8853,-0.3673095703125,-0.022216796875,0.95330810546875,0.082244873046875,-0.58319091796875,-0.0299072265625,5.699834537348306,5.789403714565005,4.275486255155807,3.881931192332451,0.0,0.0,0.0,0.0,0.0,0.0,0.0,0.0,0.0,0.0,0.0,0.0,76.46359,1,1.0,1.0,1.0,1.0,80.59
2026-01-20 05:31:11.269,,,,,,,,,,,,,,,,,,,,,,,,,,,,,,,,,,,,,,,,,,,,,,,,,,,,,,,,,,/muse/elements/jaw_clench
2026-01-20 05:31:11.633,,,,,,,,,,,,,,,,,,,,,,,,,,,,,,,,,,,,,,,,,,,,,,,,,,,,,,,,,,/muse/elements/jaw_clench
2026-01-20 05:31:11.637,,,,,,,,,,,,,,,,,,,,,,,,,,,,,,,,,,,,,,,,,,,,,,,,,,,,,,,,,,/muse/elements/blink
2026-01-20 05:31:11.730,-0.07271946,0.0,-0.48223484,0.012445283,0.4570429,0.0,-0.23828705,0.51785076,0.9019589,0.0,-0.1701749,0.97574544,1.4574318,0.0,0.06665573,1.6905538,1.4582664,0.0,0.2256003,1.6569493,711.6798,701.8556,692.2084,704.5108,755.0479,756.287,755.4904,1269.3585,-0.370849609375,-0.02099609375,0.9488525390625,0.2392578125,-0.246734619140625,0.85235595703125,5.702825262856734,5.792272369644517,4.2822001287461555,3.883701213551725,0.0,0.0,0.0,0.0,0.0,0.0,0.0,0.0,0.0,0.0,0.0,0.0,75.750534,1,1.0,1.0,1.0,1.0,80.59
2026-01-20 05:31:12.235,,,,,,,,,,,,,,,,,,,,,,,,,,,,,,,,,,,,,,,,,,,,,,,,,,,,,,,,,,/muse/elements/jaw_clench
2026-01-20 05:31:12.529,,,,,,,,,,,,,,,,,,,,,,,,,,,,,,,,,,,,,,,,,,,,,,,,,,,,,,,,,,/muse/elements/jaw_clench
2026-01-20 05:31:12.628,,,,,,,,,,,,,,,,,,,,,,,,,,,,,,,,,,,,,,,,,,,,,,,,,,,,,,,,,,/muse/elements/blink
2026-01-20 05:31:12.743,-0.07271946,0.0,-0.48223484,0.012445283,0.4570429,0.0,-0.23828705,0.51785076,0.9019589,0.0,-0.1701749,0.97574544,1.4574318,0.0,0.06665573,1.6905538,1.4582664,0.0,0.2256003,1.6569493,721.14996,712.2108,701.5901,711.9453,575.02594,560.15686,591.2226,635.38727,-0.3712158203125,-0.026611328125,0.9495849609375,-0.13458251953125,-0.88226318359375,-0.299072265625,5.724065517488019,5.806035810504732,4.317692105953317,3.9077185704408364,0.0,0.0,0.0,0.0,0.0,0.0,0.0,0.0,0.0,0.0,0.0,0.0,74.55861,1,1.0,1.0,1.0,1.0,80.59
2026-01-20 05:31:12.761,,,,,,,,,,,,,,,,,,,,,,,,,,,,,,,,,,,,,,,,,,,,,,,,,,,,,,,,,,/muse/elements/jaw_clench
2026-01-20 05:31:13.279,,,,,,,,,,,,,,,,,,,,,,,,,,,,,,,,,,,,,,,,,,,,,,,,,,,,,,,,,,/muse/elements/jaw_clench
2026-01-20 05:31:13.511,,,,,,,,,,,,,,,,,,,,,,,,,,,,,,,,,,,,,,,,,,,,,,,,,,,,,,,,,,/muse/elements/blink
2026-01-20 05:31:13.757,-0.07271946,0.0,-0.48223484,0.012445283,0.4570429,0.0,-0.23828705,0.51785076,0.9019589,0.0,-0.1701749,0.97574544,1.4574318,0.0,0.06665573,1.6905538,1.4582664,0.0,0.2256003,1.6569493,712.1223,699.73145,694.6866,700.35095,752.0387,749.91455,760.71234,1263.2516,-0.36370849609375,-0.02886962890625,0.9476318359375,0.082244873046875,-1.30096435546875,0.299072265625,5.760625610948192,5.830724554752879,4.373051045466466,3.9410743151419783,0.0,0.0,0.0,0.0,0.0,0.0,0.0,0.0,0.0,0.0,0.0,0.0,73.272255,1,2.0,1.0,1.0,2.0,80.59
2026-01-20 05:31:14.276,,,,,,,,,,,,,,,,,,,,,,,,,,,,,,,,,,,,,,,,,,,,,,,,,,,,,,,,,,/muse/elements/blink
2026-01-20 05:31:14.765,-0.07271946,0.0,-0.48223484,0.012445283,0.4570429,0.0,-0.23828705,0.51785076,0.9019589,0.0,-0.1701749,0.97574544,1.4574318,0.0,0.06665573,1.6905538,1.4582664,0.0,0.2256003,1.6569493,701.7671,701.236,706.72345,697.9613,743.09955,746.72833,766.7308,1262.809,-0.36590576171875,-0.0316162109375,0.9532470703125,0.19439697265625,-0.58319091796875,-0.381317138671875,5.676641155854374,5.7606561285554205,4.259189852895596,3.858157976301171,0.0,0.0,0.0,0.0,0.0,0.0,0.0,0.0,0.0,0.0,0.0,0.0,72.283134,1,2.0,1.0,1.0,2.0,80.59
2026-01-20 05:31:14.875,,,,,,,,,,,,,,,,,,,,,,,,,,,,,,,,,,,,,,,,,,,,,,,,,,,,,,,,,,/muse/elements/jaw_clench
2026-01-20 05:31:15.588,,,,,,,,,,,,,,,,,,,,,,,,,,,,,,,,,,,,,,,,,,,,,,,,,,,,,,,,,,/muse/elements/jaw_clench
2026-01-20 05:31:15.623,,,,,,,,,,,,,,,,,,,,,,,,,,,,,,,,,,,,,,,,,,,,,,,,,,,,,,,,,,/muse/elements/blink
2026-01-20 05:31:15.770,-0.07271946,0.0,-0.48223484,0.012445283,0.4570429,0.0,-0.23828705,0.51785076,0.9019589,0.0,-0.1701749,0.97574544,1.4574318,0.0,0.06665573,1.6905538,1.4582664,0.0,0.2256003,1.6569493,742.303,735.134,727.3454,735.311,719.5569,721.5925,712.4763,1450.0,-0.36688232421875,-0.0299072265625,0.94873046875,-0.082244873046875,-0.112152099609375,0.01495361328125,5.666692415897766,5.752843621104833,4.248569725579954,3.8478430250578164,0.0,0.0,0.0,0.0,0.0,0.0,0.0,0.0,0.0,0.0,0.0,0.0,72.13772,1,2.0,1.0,1.0,2.0,80.59
2026-01-20 05:31:16.768,,,,,,,,,,,,,,,,,,,,,,,,,,,,,,,,,,,,,,,,,,,,,,,,,,,,,,,,,,/muse/elements/jaw_clench
2026-01-20 05:31:16.780,-0.07271946,0.0,-0.48223484,0.012445283,0.4570429,0.0,-0.23828705,0.51785076,0.9019589,0.0,-0.1701749,0.97574544,1.4574318,0.0,0.06665573,1.6905538,1.4582664,0.0,0.2256003,1.6569493,712.5649,720.3534,727.78796,709.2901,721.5925,727.69946,757.5261,1203.1558,-0.362548828125,-0.022216796875,0.95172119140625,-0.04486083984375,-0.777587890625,0.0897216796875,5.674291300097751,5.756353145936151,4.2631571418353476,3.8563269198674393,0.0,0.0,0.0,0.0,0.0,0.0,0.0,0.0,0.0,0.0,0.0,0.0,72.28543,1,2.0,1.0,1.0,2.0,80.59
2026-01-20 05:31:17.366,,,,,,,,,,,,,,,,,,,,,,,,,,,,,,,,,,,,,,,,,,,,,,,,,,,,,,,,,,/muse/elements/blink
2026-01-20 05:31:17.797,-0.07271946,0.0,-0.48223484,0.012445283,0.4570429,0.0,-0.23828705,0.51785076,0.9019589,0.0,-0.1701749,0.97574544,1.4574318,0.0,0.06665573,1.6905538,1.4582664,0.0,0.2256003,1.6569493,750.7996,740.26733,727.61096,737.7007,775.40436,783.28143,805.8506,1403.5342,-0.36199951171875,-0.03057861328125,0.95758056640625,0.2691650390625,-0.336456298828125,0.306549072265625,5.701787664210953,5.779241351357795,4.306064897599122,3.8861426221300337,0.0,0.0,0.0,0.0,0.0,0.0,0.0,0.0,0.0,0.0,0.0,0.0,72.15166,1,2.0,1.0,1.0,2.0,80.55
2026-01-20 05:31:18.740,,,,,,,,,,,,,,,,,,,,,,,,,,,,,,,,,,,,,,,,,,,,,,,,,,,,,,,,,,/muse/elements/jaw_clench
2026-01-20 05:31:18.743,,,,,,,,,,,,,,,,,,,,,,,,,,,,,,,,,,,,,,,,,,,,,,,,,,,,,,,,,,/muse/elements/blink
2026-01-20 05:31:18.810,-0.07271946,0.0,-0.48223484,0.012445283,0.4570429,0.0,-0.23828705,0.51785076,0.9019589,0.0,-0.1701749,0.97574544,1.4574318,0.0,0.06665573,1.6905538,1.4582664,0.0,0.2256003,1.6569493,722.30054,718.40625,720.2649,721.5925,784.1665,780.1837,777.086,1402.826,-0.364501953125,-0.0543212890625,0.953857421875,-0.216827392578125,1.4654541015625,1.622467041015625,5.726659514102472,5.796911045943304,4.342777579095439,3.909946355768543,0.0,0.0,0.0,0.0,0.0,0.0,0.0,0.0,0.0,0.0,0.0,0.0,71.441345,1,2.0,4.0,1.0,2.0,80.55
2026-01-20 05:31:19.013,,,,,,,,,,,,,,,,,,,,,,,,,,,,,,,,,,,,,,,,,,,,,,,,,,,,,,,,,,/muse/elements/blink
2026-01-20 05:31:19.259,,,,,,,,,,,,,,,,,,,,,,,,,,,,,,,,,,,,,,,,,,,,,,,,,,,,,,,,,,/muse/elements/blink
2026-01-20 05:31:19.510,,,,,,,,,,,,,,,,,,,,,,,,,,,,,,,,,,,,,,,,,,,,,,,,,,,,,,,,,,/muse/elements/jaw_clench
2026-01-20 05:31:19.762,,,,,,,,,,,,,,,,,,,,,,,,,,,,,,,,,,,,,,,,,,,,,,,,,,,,,,,,,,/muse/elements/blink
2026-01-20 05:31:19.822,-0.07271946,0.0,-0.48223484,0.012445283,0.4570429,0.0,-0.23828705,0.51785076,0.9019589,0.0,-0.1701749,0.97574544,1.4574318,0.0,0.06665573,1.6905538,1.4582664,0.0,0.2256003,1.6569493,717.69824,726.2833,730.6202,711.23724,793.19415,788.59186,814.43567,1448.8494,-0.3939208984375,-0.00323486328125,0.93359375,-0.55328369140625,0.426177978515625,-0.46356201171875,5.686254202131464,5.753209832391579,4.290714541163007,3.864169944925256,0.0,0.0,0.0,0.0,0.0,0.0,0.0,0.0,0.0,0.0,0.0,0.0,70.66789,1,2.0,1.0,1.0,2.0,80.55
2026-01-20 05:31:20.411,,,,,,,,,,,,,,,,,,,,,,,,,,,,,,,,,,,,,,,,,,,,,,,,,,,,,,,,,,/muse/elements/blink
2026-01-20 05:31:20.824,-0.07271946,0.0,-0.48223484,0.012445283,0.4570429,0.0,-0.23828705,0.51785076,0.9019589,0.0,-0.1701749,0.97574544,1.4574318,0.0,0.06665573,1.6905538,1.4582664,0.0,0.2256003,1.6569493,731.94775,729.8236,723.3626,724.77875,773.7228,772.8377,781.0688,1448.5839,-0.37591552734375,-0.057373046875,0.95928955078125,0.844879150390625,-2.235565185546875,0.665435791015625,5.659307154948382,5.740697613427747,4.250705958085974,3.8446386762987865,0.0,0.0,0.0,0.0,0.0,0.0,0.0,0.0,0.0,0.0,0.0,0.0,69.46248,1,2.0,2.0,1.0,2.0,80.55
2026-01-20 05:31:21.431,,,,,,,,,,,,,,,,,,,,,,,,,,,,,,,,,,,,,,,,,,,,,,,,,,,,,,,,,,/muse/elements/blink
2026-01-20 05:31:21.518,,,,,,,,,,,,,,,,,,,,,,,,,,,,,,,,,,,,,,,,,,,,,,,,,,,,,,,,,,/muse/elements/jaw_clench
2026-01-20 05:31:21.834,-0.07271946,0.0,-0.48223484,0.012445283,0.4570429,0.0,-0.23828705,0.51785076,0.9019589,0.0,-0.1701749,0.97574544,1.4574318,0.0,0.06665573,1.6905538,1.4582664,0.0,0.2256003,1.6569493,720.3534,724.95575,720.97296,724.69025,781.51135,769.917,773.4572,1431.5022,-0.37860107421875,-0.02020263671875,0.9464111328125,0.097198486328125,-0.16448974609375,0.179443359375,5.6604973416303075,5.742589705075936,4.257999666213671,3.8504675392794985,0.0,0.0,0.0,0.0,0.0,0.0,0.0,0.0,0.0,0.0,0.0,0.0,68.86068,1,2.0,2.0,1.0,2.0,80.55
2026-01-20 05:31:22.105,,,,,,,,,,,,,,,,,,,,,,,,,,,,,,,,,,,,,,,,,,,,,,,,,,,,,,,,,,/muse/elements/blink
2026-01-20 05:31:22.623,,,,,,,,,,,,,,,,,,,,,,,,,,,,,,,,,,,,,,,,,,,,,,,,,,,,,,,,,,/muse/elements/blink
2026-01-20 05:31:22.623,,,,,,,,,,,,,,,,,,,,,,,,,,,,,,,,,,,,,,,,,,,,,,,,,,,,,,,,,,/muse/elements/jaw_clench
2026-01-20 05:31:22.846,-0.07271946,0.0,-0.48223484,0.012445283,0.4570429,0.0,-0.23828705,0.51785076,0.9019589,0.0,-0.1701749,0.97574544,1.4574318,0.0,0.06665573,1.6905538,1.4582664,0.0,0.2256003,1.6569493,740.9754,728.496,721.504,727.61096,817.0024,811.692,813.1966,1450.0,-0.37591552734375,-0.01007080078125,0.94415283203125,0.07476806640625,-0.418701171875,-0.299072265625,5.680059127864006,5.756170040292778,4.285099301432897,3.8674353288987433,0.0,0.0,0.0,0.0,0.0,0.0,0.0,0.0,0.0,0.0,0.0,0.0,69.73144,1,2.0,2.0,4.0,2.0,80.55
2026-01-20 05:31:22.985,,,,,,,,,,,,,,,,,,,,,,,,,,,,,,,,,,,,,,,,,,,,,,,,,,,,,,,,,,/muse/elements/blink
2026-01-20 05:31:23.636,,,,,,,,,,,,,,,,,,,,,,,,,,,,,,,,,,,,,,,,,,,,,,,,,,,,,,,,,,/muse/elements/blink
2026-01-20 05:31:23.848,-0.07271946,0.0,-0.48223484,0.012445283,0.4570429,0.0,-0.23828705,0.51785076,0.9019589,0.0,-0.1701749,0.97574544,1.4574318,0.0,0.06665573,1.6905538,1.4582664,0.0,0.2256003,1.6569493,730.7972,729.7351,723.5397,726.2833,788.3263,796.91144,809.6564,1450.0,-0.37774658203125,-0.02178955078125,0.94842529296875,0.515899658203125,0.16448974609375,-0.261688232421875,5.725408292206089,5.791570464678254,4.353763917697828,3.9143103736022695,0.0,0.0,0.0,0.0,0.0,0.0,0.0,0.0,0.0,0.0,0.0,0.0,70.75398,1,2.0,2.0,2.0,2.0,80.54
2026-01-20 05:31:23.896,,,,,,,,,,,,,,,,,,,,,,,,,,,,,,,,,,,,,,,,,,,,,,,,,,,,,,,,,,/muse/elements/blink
2026-01-20 05:31:24.864,-0.07271946,0.0,-0.48223484,0.14306693,0.4570429,0.0,-0.23828705,0.523991,0.9019589,0.0,-0.1701749,1.3143706,1.4574318,0.0,0.06665573,1.6423936,1.4582664,0.0,0.2256003,1.6661938,739.38226,730.7087,719.0258,732.30176,789.12286,792.3091,793.6367,1450.0,-0.3682861328125,-0.02130126953125,0.94415283203125,0.2093505859375,-0.157012939453125,0.127105712890625,5.642217294900222,5.719548911618149,4.238895644088406,3.832462151014472,0.0,0.0,0.0,0.0,0.0,0.0,0.0,0.0,0.0,0.0,0.0,0.0,71.50477,1,1.0,1.0,1.0,1.0,80.54
2026-01-20 05:31:25.376,,,,,,,,,,,,,,,,,,,,,,,,,,,,,,,,,,,,,,,,,,,,,,,,,,,,,,,,,,/muse/elements/blink
2026-01-20 05:31:25.731,,,,,,,,,,,,,,,,,,,,,,,,,,,,,,,,,,,,,,,,,,,,,,,,,,,,,,,,,,/muse/elements/blink
2026-01-20 05:31:25.880,-0.07271946,0.0,-0.48223484,0.1182637,0.4570429,0.0,-0.23828705,0.32129312,0.9019589,0.0,-0.1701749,1.2216153,1.4574318,0.0,0.06665573,1.4876392,1.4582664,0.0,0.2256003,1.5215828,706.2809,705.5729,700.7935,698.3153,754.7824,768.7664,756.81805,1365.2994,-0.37750244140625,-0.00860595703125,0.94415283203125,1.614990234375,0.665435791015625,2.190704345703125,5.652227070071287,5.731725436902463,4.252323391269103,3.8436010776530054,0.0,0.0,0.0,0.0,0.0,0.0,0.0,0.0,0.0,0.0,0.0,0.0,73.085144,1,1.0,1.0,1.0,1.0,80.54
2026-01-20 05:31:25.914,,,,,,,,,,,,,,,,,,,,,,,,,,,,,,,,,,,,,,,,,,,,,,,,,,,,,,,,,,/muse/elements/blink
2026-01-20 05:31:26.627,,,,,,,,,,,,,,,,,,,,,,,,,,,,,,,,,,,,,,,,,,,,,,,,,,,,,,,,,,/muse/elements/blink
2026-01-20 05:31:26.859,,,,,,,,,,,,,,,,,,,,,,,,,,,,,,,,,,,,,,,,,,,,,,,,,,,,,,,,,,/muse/elements/blink
2026-01-20 05:31:26.893,-0.07271946,0.0,-0.48223484,0.1182637,0.4570429,0.0,-0.23828705,0.32129312,0.9019589,0.0,-0.1701749,1.2216153,1.4574318,0.0,0.06665573,1.4876392,1.4582664,0.0,0.2256003,1.5215828,743.36505,744.0731,731.77075,734.957,778.67914,781.95386,786.11365,1448.1414,-0.36602783203125,-0.003173828125,0.961669921875,0.3289794921875,-1.1065673828125,-0.64300537109375,5.64520802040865,5.722295496268746,4.245579000071525,3.8347204539494077,0.0,0.0,0.0,0.0,0.0,0.0,0.0,0.0,0.0,0.0,0.0,0.0,73.976326,1,1.0,1.0,1.0,1.0,80.54
2026-01-20 05:31:27.757,,,,,,,,,,,,,,,,,,,,,,,,,,,,,,,,,,,,,,,,,,,,,,,,,,,,,,,,,,/muse/elements/jaw_clench
2026-01-20 05:31:27.903,-0.07271946,0.0,-0.48223484,0.1182637,0.4570429,0.0,-0.23828705,0.32129312,0.9019589,0.0,-0.1701749,1.2216153,1.4574318,0.0,0.06665573,1.4876392,1.4582664,0.0,0.2256003,1.5215828,750.00305,757.43756,757.5261,739.29376,741.4179,746.72833,713.53845,1209.6167,-0.35406494140625,-0.01177978515625,0.9537353515625,-1.39068603515625,-2.093505859375,-1.861724853515625,5.572057315881077,5.649602555849605,4.143528121498224,3.751346351000167,0.0,0.0,0.0,0.0,0.0,0.0,0.0,0.0,0.0,0.0,0.0,0.0,74.924095,1,2.0,1.0,1.0,2.0,80.54
2026-01-20 05:31:28.918,-0.07271946,0.0,-0.48223484,0.045782797,0.4570429,0.0,-0.23828705,0.49857002,0.9019589,0.0,-0.1701749,1.2761897,1.4574318,0.0,0.06665573,1.3831309,1.4582664,0.0,0.2256003,1.4870003,740.5329,746.10876,753.2778,741.772,773.1917,760.2698,745.93176,1278.2976,-0.369384765625,-0.0277099609375,0.94915771484375,-0.10467529296875,0.396270751953125,-0.46356201171875,5.573339055384689,5.653295186324297,4.139225138878955,3.7477757909543903,0.0,0.0,0.0,0.0,0.0,0.0,0.0,0.0,0.0,0.0,0.0,0.0,77.35093,1,1.0,1.0,1.0,1.0,80.53
2026-01-20 05:31:29.927,-0.07271946,0.0,-0.48223484,0.3068412,0.4570429,0.0,-0.23828705,0.50087774,0.9019589,0.0,-0.1701749,1.2663966,1.4574318,0.0,0.06665573,1.4114825,1.4582664,0.0,0.2256003,1.5321347,716.54767,710.3522,707.697,707.25446,745.57776,747.25934,745.57776,1244.2227,-0.36614990234375,-0.02899169921875,0.94989013671875,0.456085205078125,0.396270751953125,0.95703125,5.585668168705148,5.664342560141144,4.1517068402355575,3.7583043654483466,0.0,0.0,0.0,0.0,0.0,0.0,0.0,0.0,0.0,0.0,0.0,0.0,78.189415,1,1.0,1.0,1.0,1.0,80.53
2026-01-20 05:31:30.370,,,,,,,,,,,,,,,,,,,,,,,,,,,,,,,,,,,,,,,,,,,,,,,,,,,,,,,,,,/muse/elements/jaw_clench
2026-01-20 05:31:30.652,,,,,,,,,,,,,,,,,,,,,,,,,,,,,,,,,,,,,,,,,,,,,,,,,,,,,,,,,,/muse/elements/blink
2026-01-20 05:31:30.933,-0.33777213,0.0,-0.48223484,0.44603944,0.2976029,0.0,-0.23828705,0.3257607,1.1070932,0.0,-0.1701749,1.2132457,1.2583565,0.0,0.06665573,1.3717426,1.3809718,0.0,0.2256003,1.4632485,741.772,740.7984,744.6927,733.0983,648.3977,642.2023,621.5803,1145.6266,-0.3580322265625,-0.023193359375,0.954833984375,0.46356201171875,0.478515625,0.814971923828125,5.621495839591827,5.695012755406147,4.19495028967885,3.791812698185633,0.0,0.0,0.0,0.0,0.0,0.0,0.0,0.0,0.0,0.0,0.0,0.0,74.87064,1,1.0,1.0,1.0,1.0,80.53
2026-01-20 05:31:31.631,,,,,,,,,,,,,,,,,,,,,,,,,,,,,,,,,,,,,,,,,,,,,,,,,,,,,,,,,,/muse/elements/jaw_clench
2026-01-20 05:31:31.942,-0.32694006,0.0,-0.48223484,0.44603944,-0.056366947,0.0,-0.23828705,0.3257607,0.78216964,0.0,-0.1701749,1.2132457,1.1239716,0.0,0.06665573,1.3717426,1.2525667,0.0,0.2256003,1.4632485,717.60974,719.8224,716.9017,713.80396,745.66626,751.0651,726.2833,1113.5873,-0.35552978515625,-0.0260009765625,0.95831298828125,0.28411865234375,-0.657958984375,-0.16448974609375,5.67566459242305,5.743322127649429,4.266605631452209,3.8470495672698664,0.0,0.0,0.0,0.0,0.0,0.0,0.0,0.0,0.0,0.0,0.0,0.0,70.887505,1,1.0,1.0,1.0,1.0,80.53
2026-01-20 05:31:32.957,0.28279713,0.0,-0.48223484,-0.08453472,0.50494474,0.0,-0.23828705,0.18821365,0.850339,0.0,-0.1701749,0.8028653,1.1522871,0.0,0.06665573,1.2143081,1.2469971,0.0,0.2256003,1.2704512,742.56854,739.11676,729.11554,736.01904,586.08923,564.22815,556.61664,928.4319,-0.35345458984375,-0.0235595703125,0.954833984375,0.007476806640625,-0.478515625,0.35888671875,5.737767923133776,5.80289249696016,4.353519776839997,3.9181861097203345,0.0,0.0,0.0,0.0,0.0,0.0,0.0,0.0,0.0,0.0,0.0,0.0,68.43073,1,1.0,1.0,1.0,1.0,80.53
2026-01-20 05:31:33.110,,,,,,,,,,,,,,,,,,,,,,,,,,,,,,,,,,,,,,,,,,,,,,,,,,,,,,,,,,/muse/elements/jaw_clench
2026-01-20 05:31:33.278,,,,,,,,,,,,,,,,,,,,,,,,,,,,,,,,,,,,,,,,,,,,,,,,,,,,,,,,,,/muse/elements/blink
2026-01-20 05:31:33.753,,,,,,,,,,,,,,,,,,,,,,,,,,,,,,,,,,,,,,,,,,,,,,,,,,,,,,,,,,/muse/elements/blink
2026-01-20 05:31:33.753,,,,,,,,,,,,,,,,,,,,,,,,,,,,,,,,,,,,,,,,,,,,,,,,,,,,,,,,,,/muse/elements/jaw_clench
2026-01-20 05:31:33.966,0.28887144,0.0,-0.32766047,-0.09430104,0.35299245,0.0,-0.05198198,0.15891863,0.83517635,0.0,0.26140803,0.92868155,1.0946709,0.0,0.66674566,1.1859195,1.1744556,0.0,0.7921898,1.2203352,726.0178,721.94653,714.15796,723.0086,764.25256,758.9422,744.8697,1283.254,-0.35888671875,-0.02978515625,0.95611572265625,-0.919647216796875,1.55517578125,-1.786956787109375,5.693761533509763,5.749242543451827,4.291507998950957,3.858493669980688,0.0,0.0,0.0,0.0,0.0,0.0,0.0,0.0,0.0,0.0,0.0,0.0,68.5931,1,1.0,1.0,1.0,1.0,80.53
2026-01-20 05:31:34.125,,,,,,,,,,,,,,,,,,,,,,,,,,,,,,,,,,,,,,,,,,,,,,,,,,,,,,,,,,/muse/elements/blink
2026-01-20 05:31:34.873,,,,,,,,,,,,,,,,,,,,,,,,,,,,,,,,,,,,,,,,,,,,,,,,,,,,,,,,,,/muse/elements/jaw_clench
2026-01-20 05:31:34.973,,,,,,,,,,,,,,,,,,,,,,,,,,,,,,,,,,,,,,,,,,,,,,,,,,,,,,,,,,/muse/elements/blink
2026-01-20 05:31:34.975,0.22713801,0.0,-0.33246604,-0.16579837,-0.03731584,0.0,-0.08224015,0.16661645,0.5928125,0.0,0.30439624,0.88479084,0.93944836,0.0,0.65085363,1.1413845,0.97545356,0.0,0.76474047,1.1853286,713.0959,721.5925,721.85803,710.52924,754.5169,758.8537,770.094,1346.9785,-0.39984130859375,0.00299072265625,0.93988037109375,0.3289794921875,2.9010009765625,-5.18890380859375,5.730291109362707,5.779088763321651,4.336094223112319,3.8872717735975013,0.0,0.0,0.0,0.0,0.0,0.0,0.0,0.0,0.0,0.0,0.0,0.0,69.30649,1,1.0,1.0,1.0,1.0,80.52
2026-01-20 05:31:35.505,,,,,,,,,,,,,,,,,,,,,,,,,,,,,,,,,,,,,,,,,,,,,,,,,,,,,,,,,,/muse/elements/jaw_clench
2026-01-20 05:31:35.984,0.22713801,0.0,-0.41622615,-0.16579837,-0.03731584,0.0,-0.21379316,0.16661645,0.5928125,0.0,0.061989646,0.88479084,0.93944836,0.0,0.4315694,1.1413845,0.97545356,0.0,0.49124548,1.1853286,716.1936,712.3878,708.3165,713.0074,751.2421,754.25134,727.69946,1207.935,-0.402587890625,-0.01922607421875,0.93035888671875,-0.4486083984375,-5.316009521484375,-0.1495361328125,5.723241542092841,5.784948143909592,4.32617600076294,3.8939551295806214,0.0,0.0,0.0,0.0,0.0,0.0,0.0,0.0,0.0,0.0,0.0,0.0,70.42238,1,1.0,1.0,1.0,1.0,80.52
2026-01-20 05:31:36.383,,,,,,,,,,,,,,,,,,,,,,,,,,,,,,,,,,,,,,,,,,,,,,,,,,,,,,,,,,/muse/elements/jaw_clench
2026-01-20 05:31:36.487,,,,,,,,,,,,,,,,,,,,,,,,,,,,,,,,,,,,,,,,,,,,,,,,,,,,,,,,,,/muse/elements/blink
2026-01-20 05:31:37.002,0.22713801,0.0,-0.41622615,-0.16579837,-0.03731584,0.0,-0.21379316,0.16661645,0.5928125,0.0,0.061989646,0.88479084,0.93944836,0.0,0.4315694,1.1413845,0.97545356,0.0,0.49124548,1.1853286,719.1143,711.9453,706.54645,713.0074,738.3202,742.3915,727.96497,1179.8785,-0.373046875,-0.01910400390625,0.94891357421875,0.800018310546875,-1.68975830078125,-0.059814453125,5.67194144434113,5.736058937128961,4.260105381112462,3.8416479507903585,0.0,0.0,0.0,0.0,0.0,0.0,0.0,0.0,0.0,0.0,0.0,0.0,73.05607,1,2.0,1.0,1.0,2.0,80.52
2026-01-20 05:31:37.881,,,,,,,,,,,,,,,,,,,,,,,,,,,,,,,,,,,,,,,,,,,,,,,,,,,,,,,,,,/muse/elements/jaw_clench
2026-01-20 05:31:38.013,0.22713801,0.0,-0.41622615,-0.16579837,-0.03731584,0.0,-0.21379316,0.16661645,0.5928125,0.0,0.061989646,0.88479084,0.93944836,0.0,0.4315694,1.1413845,0.97545356,0.0,0.49124548,1.1853286,735.488,733.0983,720.4419,732.5673,776.555,781.3343,766.8193,1334.4991,-0.37457275390625,-0.03265380859375,0.9501953125,0.40374755859375,0.0299072265625,0.052337646484375,5.668615025153184,5.737645852704861,4.256473785852228,3.8427465846505973,0.0,0.0,0.0,0.0,0.0,0.0,0.0,0.0,0.0,0.0,0.0,0.0,75.24748,1,2.0,1.0,1.0,2.0,80.52
2026-01-20 05:31:38.298,,,,,,,,,,,,,,,,,,,,,,,,,,,,,,,,,,,,,,,,,,,,,,,,,,,,,,,,,,/muse/elements/jaw_clench
2026-01-20 05:31:38.781,,,,,,,,,,,,,,,,,,,,,,,,,,,,,,,,,,,,,,,,,,,,,,,,,,,,,,,,,,/muse/elements/jaw_clench
2026-01-20 05:31:39.029,0.22713801,-0.37842265,-0.42242947,-0.011045779,-0.03731584,-0.40584415,-0.64715064,0.21845621,0.5928125,0.11716851,0.12453565,0.714978,0.93944836,0.6815961,0.59874904,0.96158993,0.97545356,0.6291603,0.52830607,0.770697,744.1616,738.58575,729.29254,738.4087,767.70435,766.4652,733.9834,1191.1189,-0.369140625,-0.0186767578125,0.95050048828125,0.037384033203125,-1.054229736328125,-0.874786376953125,5.686284719738693,5.748601673700022,4.282505304818444,3.8584326347662303,0.0,0.0,0.0,0.0,0.0,0.0,0.0,0.0,0.0,0.0,0.0,0.0,76.49294,1,1.0,1.0,1.0,1.0,80.52
2026-01-20 05:31:39.611,,,,,,,,,,,,,,,,,,,,,,,,,,,,,,,,,,,,,,,,,,,,,,,,,,,,,,,,,,/muse/elements/jaw_clench
2026-01-20 05:31:40.042,0.22713801,-0.37842265,-0.59764946,0.008293993,-0.03731584,-0.40584415,-0.5754596,0.27154246,0.5928125,0.11716851,0.3638656,0.71379477,0.93944836,0.6815961,0.60322064,0.9782516,0.97545356,0.6291603,0.70267665,0.7915828,706.4579,714.689,723.9822,700.35095,734.77997,755.4904,726.9914,1181.3832,-0.3665771484375,-0.0245361328125,0.9580078125,0.381317138671875,-0.73272705078125,-0.575714111328125,5.630193357652051,5.696843811839878,4.207920272751115,3.802799036788022,0.0,0.0,0.0,0.0,0.0,0.0,0.0,0.0,0.0,0.0,0.0,0.0,78.601585,1,1.0,1.0,1.0,1.0,80.49
2026-01-20 05:31:40.395,,,,,,,,,,,,,,,,,,,,,,,,,,,,,,,,,,,,,,,,,,,,,,,,,,,,,,,,,,/muse/elements/jaw_clench
2026-01-20 05:31:40.759,,,,,,,,,,,,,,,,,,,,,,,,,,,,,,,,,,,,,,,,,,,,,,,,,,,,,,,,,,/muse/elements/jaw_clench
2026-01-20 05:31:41.053,0.0021411858,-0.5053739,-0.5270908,0.03358622,0.25713867,-0.47656634,-0.44842765,0.13190222,0.69002074,0.11973171,-0.24417196,0.4420262,1.3450663,0.7644263,0.54850733,0.7954859,1.3955522,0.87473506,0.6280333,0.9247629,747.43634,741.1524,732.03625,741.6835,734.86847,742.92255,706.0154,1130.846,-0.36932373046875,-0.0244140625,0.94805908203125,0.2392578125,-0.411224365234375,-0.31402587890625,5.615941635076175,5.6881768113868825,4.19147128245476,3.7896764656796127,0.0,0.0,0.0,0.0,0.0,0.0,0.0,0.0,0.0,0.0,0.0,0.0,79.68784,1,1.0,1.0,1.0,1.0,80.49
2026-01-20 05:31:41.392,,,,,,,,,,,,,,,,,,,,,,,,,,,,,,,,,,,,,,,,,,,,,,,,,,,,,,,,,,/muse/elements/jaw_clench
2026-01-20 05:31:41.539,,,,,,,,,,,,,,,,,,,,,,,,,,,,,,,,,,,,,,,,,,,,,,,,,,,,,,,,,,/muse/elements/jaw_clench
2026-01-20 05:31:41.875,,,,,,,,,,,,,,,,,,,,,,,,,,,,,,,,,,,,,,,,,,,,,,,,,,,,,,,,,,/muse/elements/jaw_clench
2026-01-20 05:31:42.047,,,,,,,,,,,,,,,,,,,,,,,,,,,,,,,,,,,,,,,,,,,,,,,,,,,,,,,,,,/muse/elements/jaw_clench
2026-01-20 05:31:42.054,0.050144874,-0.45106947,-0.3858119,-0.09486075,0.31075108,-0.6629793,-0.49024,0.3242109,0.71139795,0.041385043,-0.26493284,0.83820534,1.4225279,0.636809,0.6328357,1.4170057,1.4814672,0.7461936,0.7144249,1.4765087,705.3958,707.9625,717.0787,699.64294,757.08356,747.5249,745.2237,1183.5073,-0.372802734375,-0.02044677734375,0.9559326171875,-0.46356201171875,0.04486083984375,-0.6280517578125,5.6520134468206855,5.711705886560332,4.241001358987197,3.82263548148678,0.0,0.0,0.0,0.0,0.0,0.0,0.0,0.0,0.0,0.0,0.0,0.0,80.924286,1,1.0,1.0,1.0,1.0,80.49
2026-01-20 05:31:42.628,,,,,,,,,,,,,,,,,,,,,,,,,,,,,,,,,,,,,,,,,,,,,,,,,,,,,,,,,,/muse/elements/jaw_clench
2026-01-20 05:31:42.985,,,,,,,,,,,,,,,,,,,,,,,,,,,,,,,,,,,,,,,,,,,,,,,,,,,,,,,,,,/muse/elements/jaw_clench
2026-01-20 05:31:43.067,-0.21011607,-0.45106947,-0.3858119,0.2371068,0.37517947,-0.6629793,-0.49024,0.43599084,1.1751882,0.041385043,-0.26493284,1.2186886,1.4881585,0.636809,0.6328357,1.5739828,1.4623375,0.7461936,0.7144249,1.5824084,733.1868,734.3374,734.77997,732.21326,731.77075,735.57654,708.051,1306.1771,-0.36639404296875,-0.0184326171875,0.954345703125,0.067291259765625,-2.0635986328125,0.530853271484375,5.676458050211001,5.730993014328971,4.2753336671196625,3.84427246501204,0.0,0.0,0.0,0.0,0.0,0.0,0.0,0.0,0.0,0.0,0.0,0.0,80.7683,1,1.0,1.0,1.0,1.0,80.49
2026-01-20 05:31:43.602,,,,,,,,,,,,,,,,,,,,,,,,,,,,,,,,,,,,,,,,,,,,,,,,,,,,,,,,,,/muse/elements/jaw_clench
2026-01-20 05:31:44.081,-0.15226851,-0.45106947,-0.3858119,0.2371068,0.3617214,-0.6629793,-0.49024,0.43599084,1.1751882,0.041385043,-0.26493284,1.2186886,1.51984,0.636809,0.6328357,1.5739828,1.4901348,0.7461936,0.7144249,1.5824084,711.23724,709.90967,708.8476,708.5821,746.63983,737.5237,734.86847,1174.7451,-0.36627197265625,-0.01934814453125,0.9520263671875,0.1495361328125,-0.179443359375,0.059814453125,5.606938940943662,5.678929976396538,4.182010824213814,3.782108099086856,0.0,0.0,0.0,0.0,0.0,0.0,0.0,0.0,0.0,0.0,0.0,0.0,78.82869,1,1.0,1.0,1.0,1.0,80.49
2026-01-20 05:31:44.134,,,,,,,,,,,,,,,,,,,,,,,,,,,,,,,,,,,,,,,,,,,,,,,,,,,,,,,,,,/muse/elements/jaw_clench
2026-01-20 05:31:44.195,,,,,,,,,,,,,,,,,,,,,,,,,,,,,,,,,,,,,,,,,,,,,,,,,,,,,,,,,,/muse/elements/blink
2026-01-20 05:31:44.743,,,,,,,,,,,,,,,,,,,,,,,,,,,,,,,,,,,,,,,,,,,,,,,,,,,,,,,,,,/muse/elements/jaw_clench
2026-01-20 05:31:45.090,-0.15226851,-0.45106947,-0.3858119,0.2371068,0.3617214,-0.6629793,-0.49024,0.43599084,1.1751882,0.041385043,-0.26493284,1.2186886,1.51984,0.636809,0.6328357,1.5739828,1.4901348,0.7461936,0.7144249,1.5824084,711.6798,710.4407,704.06824,701.8556,740.6214,749.91455,750.9766,1269.624,-0.36798095703125,-0.01690673828125,0.953369140625,0.351409912109375,-0.291595458984375,0.142059326171875,5.640264168037575,5.705663400329018,4.2210123262522945,3.809482392771142,0.0,0.0,0.0,0.0,0.0,0.0,0.0,0.0,0.0,0.0,0.0,0.0,77.47653,1,1.0,1.0,1.0,1.0,80.49
2026-01-20 05:31:45.611,,,,,,,,,,,,,,,,,,,,,,,,,,,,,,,,,,,,,,,,,,,,,,,,,,,,,,,,,,/muse/elements/jaw_clench
2026-01-20 05:31:45.727,,,,,,,,,,,,,,,,,,,,,,,,,,,,,,,,,,,,,,,,,,,,,,,,,,,,,,,,,,/muse/elements/blink
2026-01-20 05:31:46.091,-0.15226851,-0.45106947,-0.3858119,0.2371068,0.3617214,-0.6629793,-0.49024,0.43599084,1.1751882,0.041385043,-0.26493284,1.2186886,1.51984,0.636809,0.6328357,1.5739828,1.4901348,0.7461936,0.7144249,1.5824084,718.31775,718.49475,712.2108,715.5741,748.6755,749.295,729.9121,1041.6316,-0.3685302734375,-0.02587890625,0.9505615234375,-0.04486083984375,-0.650482177734375,-0.97198486328125,5.709386548410938,5.761602174379515,4.317264859452114,3.878909949216794,0.0,0.0,0.0,0.0,0.0,0.0,0.0,0.0,0.0,0.0,0.0,0.0,76.451836,1,2.0,4.0,1.0,2.0,80.47
2026-01-20 05:31:46.509,,,,,,,,,,,,,,,,,,,,,,,,,,,,,,,,,,,,,,,,,,,,,,,,,,,,,,,,,,/muse/elements/jaw_clench
2026-01-20 05:31:46.610,,,,,,,,,,,,,,,,,,,,,,,,,,,,,,,,,,,,,,,,,,,,,,,,,,,,,,,,,,/muse/elements/blink
2026-01-20 05:31:47.105,-0.15226851,-0.45106947,-0.3858119,0.2371068,0.3617214,-0.6629793,-0.49024,0.43599084,1.1751882,0.041385043,-0.26493284,1.2186886,1.51984,0.636809,0.6328357,1.5739828,1.4901348,0.7461936,0.7144249,1.5824084,723.5397,721.504,711.7683,718.31775,753.2778,757.43756,742.56854,1198.1993,-0.36419677734375,-0.03033447265625,0.94659423828125,0.082244873046875,-0.740203857421875,-0.0,5.741063824714494,5.785985742555373,4.362675059008654,3.9081152993348116,0.0,0.0,0.0,0.0,0.0,0.0,0.0,0.0,0.0,0.0,0.0,0.0,75.431046,1,2.0,1.0,1.0,2.0,80.47
2026-01-20 05:31:47.373,,,,,,,,,,,,,,,,,,,,,,,,,,,,,,,,,,,,,,,,,,,,,,,,,,,,,,,,,,/muse/elements/jaw_clench
2026-01-20 05:31:47.492,,,,,,,,,,,,,,,,,,,,,,,,,,,,,,,,,,,,,,,,,,,,,,,,,,,,,,,,,,/muse/elements/jaw_clench
2026-01-20 05:31:47.988,,,,,,,,,,,,,,,,,,,,,,,,,,,,,,,,,,,,,,,,,,,,,,,,,,,,,,,,,,/muse/elements/jaw_clench
2026-01-20 05:31:47.990,,,,,,,,,,,,,,,,,,,,,,,,,,,,,,,,,,,,,,,,,,,,,,,,,,,,,,,,,,/muse/elements/blink
2026-01-20 05:31:48.119,0.38100034,-0.45106947,-0.3858119,0.2371068,0.4453515,-0.6629793,-0.49024,0.43599084,1.254211,0.041385043,-0.26493284,1.2186886,1.6174707,0.636809,0.6328357,1.5739828,1.6785908,0.7461936,0.7144249,1.5824084,721.5925,724.86725,718.49475,721.06146,778.0596,783.36993,753.01227,1174.4796,-0.3623046875,-0.0283203125,0.94921875,-0.157012939453125,-0.35888671875,0.216827392578125,5.644628185871301,5.710515699878407,4.2262918723028875,3.8189428510120877,0.0,0.0,0.0,0.0,0.0,0.0,0.0,0.0,0.0,0.0,0.0,0.0,74.68776,1,1.0,1.0,1.0,1.0,80.47
2026-01-20 05:31:48.755,,,,,,,,,,,,,,,,,,,,,,,,,,,,,,,,,,,,,,,,,,,,,,,,,,,,,,,,,,/muse/elements/jaw_clench
2026-01-20 05:31:49.075,,,,,,,,,,,,,,,,,,,,,,,,,,,,,,,,,,,,,,,,,,,,,,,,,,,,,,,,,,/muse/elements/jaw_clench
2026-01-20 05:31:49.126,0.38100034,-0.45106947,-0.3858119,0.2371068,0.4453515,-0.6629793,-0.49024,0.43599084,1.254211,0.041385043,-0.26493284,1.2186886,1.6174707,0.636809,0.6328357,1.5739828,1.6785908,0.7461936,0.7144249,1.5824084,741.772,732.47876,718.05225,735.84204,746.63983,744.6042,736.46155,1201.3856,-0.3575439453125,-0.01910400390625,0.9537353515625,0.261688232421875,-0.67291259765625,0.31402587890625,5.675450969172449,5.734655127196433,4.26684977231004,3.8452185108361348,0.0,0.0,0.0,0.0,0.0,0.0,0.0,0.0,0.0,0.0,0.0,0.0,75.22831,1,1.0,1.0,1.0,1.0,80.47
2026-01-20 05:31:49.382,,,,,,,,,,,,,,,,,,,,,,,,,,,,,,,,,,,,,,,,,,,,,,,,,,,,,,,,,,/muse/elements/jaw_clench
2026-01-20 05:31:49.766,,,,,,,,,,,,,,,,,,,,,,,,,,,,,,,,,,,,,,,,,,,,,,,,,,,,,,,,,,/muse/elements/jaw_clench
2026-01-20 05:31:49.883,,,,,,,,,,,,,,,,,,,,,,,,,,,,,,,,,,,,,,,,,,,,,,,,,,,,,,,,,,/muse/elements/blink
2026-01-20 05:31:50.131,0.38100034,-0.45106947,-0.3858119,0.2371068,0.4453515,-0.6629793,-0.49024,0.43599084,1.254211,0.041385043,-0.26493284,1.2186886,1.6174707,0.636809,0.6328357,1.5739828,1.6785908,0.7461936,0.7144249,1.5824084,729.9121,726.5489,718.14075,724.1592,482.27127,471.8275,509.79675,569.7156,-0.3658447265625,-0.02490234375,0.954345703125,-0.2093505859375,-1.00189208984375,0.10467529296875,5.665929475717045,5.717565267148273,4.258152254249815,3.833713372910855,0.0,0.0,0.0,0.0,0.0,0.0,0.0,0.0,0.0,0.0,0.0,0.0,76.3665,1,2.0,1.0,1.0,2.0,80.47
2026-01-20 05:31:50.646,,,,,,,,,,,,,,,,,,,,,,,,,,,,,,,,,,,,,,,,,,,,,,,,,,,,,,,,,,/muse/elements/jaw_clench
2026-01-20 05:31:51.143,0.38100034,-0.45106947,-0.3858119,0.2371068,0.4453515,-0.6629793,-0.49024,0.43599084,1.254211,0.041385043,-0.26493284,1.2186886,1.6174707,0.636809,0.6328357,1.5739828,1.6785908,0.7461936,0.7144249,1.5824084,734.0719,744.8697,749.73755,727.69946,776.0239,778.4136,745.57776,1203.5983,-0.35406494140625,-0.02728271484375,0.95550537109375,0.13458251953125,-0.321502685546875,0.007476806640625,5.6329704599098775,5.699315738025415,4.211704456047493,3.806918913763918,0.0,0.0,0.0,0.0,0.0,0.0,0.0,0.0,0.0,0.0,0.0,0.0,76.68743,1,2.0,1.0,1.0,2.0,80.47
2026-01-20 05:31:51.262,,,,,,,,,,,,,,,,,,,,,,,,,,,,,,,,,,,,,,,,,,,,,,,,,,,,,,,,,,/muse/elements/blink
2026-01-20 05:31:51.743,,,,,,,,,,,,,,,,,,,,,,,,,,,,,,,,,,,,,,,,,,,,,,,,,,,,,,,,,,/muse/elements/jaw_clench
2026-01-20 05:31:52.126,,,,,,,,,,,,,,,,,,,,,,,,,,,,,,,,,,,,,,,,,,,,,,,,,,,,,,,,,,/muse/elements/blink
2026-01-20 05:31:52.155,0.38100034,-0.45106947,-0.3858119,0.2371068,0.4453515,-0.6629793,-0.49024,0.43599084,1.254211,0.041385043,-0.26493284,1.2186886,1.6174707,0.636809,0.6328357,1.5739828,1.6785908,0.7461936,0.7144249,1.5824084,731.85925,722.03503,717.1672,728.93854,494.30814,471.56198,516.1692,508.55765,-0.36505126953125,-0.02001953125,0.94964599609375,0.19439697265625,-0.2093505859375,0.8673095703125,5.634893069165296,5.698461245023007,4.211429797582433,3.8041418115060917,0.0,0.0,0.0,0.0,0.0,0.0,0.0,0.0,0.0,0.0,0.0,0.0,77.0981,1,2.0,1.0,1.0,2.0,80.45
2026-01-20 05:31:52.742,,,,,,,,,,,,,,,,,,,,,,,,,,,,,,,,,,,,,,,,,,,,,,,,,,,,,,,,,,/muse/elements/jaw_clench
2026-01-20 05:31:53.166,0.38100034,-0.45106947,-0.3858119,0.047303442,0.4453515,-0.6629793,-0.49024,0.39165217,1.254211,0.041385043,-0.26493284,1.123259,1.6174707,0.636809,0.6328357,1.234745,1.6785908,0.7461936,0.7144249,1.2930511,721.06146,713.3614,710.0867,716.7247,524.57733,500.59207,550.6867,506.87604,-0.36163330078125,-0.026611328125,0.9488525390625,0.471038818359375,-0.58319091796875,-0.112152099609375,5.657689721765252,5.71469661206876,4.245395894428152,3.8267858760699043,0.0,0.0,0.0,0.0,0.0,0.0,0.0,0.0,0.0,0.0,0.0,0.0,77.4342,1,1.0,1.0,1.0,1.0,80.45
2026-01-20 05:31:53.538,,,,,,,,,,,,,,,,,,,,,,,,,,,,,,,,,,,,,,,,,,,,,,,,,,,,,,,,,,/muse/elements/blink
2026-01-20 05:31:54.180,0.38100034,-0.45106947,-0.3858119,0.033823065,0.4453515,-0.6629793,-0.49024,0.48094982,1.254211,0.041385043,-0.26493284,1.2224144,1.6174707,0.636809,0.6328357,1.3497097,1.6785908,0.7461936,0.7144249,1.4605368,746.63983,747.7019,746.90533,736.19604,762.6595,751.9502,749.82605,1205.9879,-0.36004638671875,-0.01922607421875,0.955322265625,-0.112152099609375,-1.734619140625,0.157012939453125,5.692296688362778,5.739934673247026,4.292057315881077,3.8575476241565934,0.0,0.0,0.0,0.0,0.0,0.0,0.0,0.0,0.0,0.0,0.0,0.0,76.479126,1,1.0,1.0,1.0,1.0,80.45
2026-01-20 05:31:54.486,,,,,,,,,,,,,,,,,,,,,,,,,,,,,,,,,,,,,,,,,,,,,,,,,,,,,,,,,,/muse/elements/blink
2026-01-20 05:31:54.486,,,,,,,,,,,,,,,,,,,,,,,,,,,,,,,,,,,,,,,,,,,,,,,,,,,,,,,,,,/muse/elements/jaw_clench
2026-01-20 05:31:54.649,,,,,,,,,,,,,,,,,,,,,,,,,,,,,,,,,,,,,,,,,,,,,,,,,,,,,,,,,,/muse/elements/blink
2026-01-20 05:31:55.185,0.38100034,-0.45106947,-0.3858119,-0.050824106,0.4453515,-0.6629793,-0.49024,0.34056905,1.254211,0.041385043,-0.26493284,1.1304226,1.6174707,0.636809,0.6328357,1.350436,1.6785908,0.7461936,0.7144249,1.450384,737.5237,741.3294,747.43634,733.0098,759.3847,753.72034,754.8709,1222.8041,-0.35430908203125,-0.021484375,0.9556884765625,0.261688232421875,-1.3458251953125,-1.00189208984375,5.622380850201464,5.687810600100136,4.195133395322223,3.7931859905109313,0.0,0.0,0.0,0.0,0.0,0.0,0.0,0.0,0.0,0.0,0.0,0.0,74.406105,1,1.0,1.0,1.0,1.0,80.45
2026-01-20 05:31:55.383,,,,,,,,,,,,,,,,,,,,,,,,,,,,,,,,,,,,,,,,,,,,,,,,,,,,,,,,,,/muse/elements/blink
2026-01-20 05:31:55.896,,,,,,,,,,,,,,,,,,,,,,,,,,,,,,,,,,,,,,,,,,,,,,,,,,,,,,,,,,/muse/elements/jaw_clench
2026-01-20 05:31:56.197,0.38100034,-0.45106947,-0.3858119,-0.013496214,0.4453515,-0.6629793,-0.49024,0.39949372,1.254211,0.041385043,-0.26493284,1.0045345,1.6174707,0.636809,0.6328357,1.0777806,1.6785908,0.7461936,0.7144249,1.1356121,743.9846,751.5077,750.8881,739.11676,739.5593,739.47076,728.67303,1121.1104,-0.3544921875,-0.02734375,0.95599365234375,0.04486083984375,-0.740203857421875,0.0897216796875,5.626470209570131,5.691289607324226,4.194645113606561,3.7959325751615287,0.0,0.0,0.0,0.0,0.0,0.0,0.0,0.0,0.0,0.0,0.0,0.0,72.73518,1,1.0,1.0,1.0,1.0,80.45
2026-01-20 05:31:56.695,,,,,,,,,,,,,,,,,,,,,,,,,,,,,,,,,,,,,,,,,,,,,,,,,,,,,,,,,,/muse/elements/jaw_clench
2026-01-20 05:31:56.745,,,,,,,,,,,,,,,,,,,,,,,,,,,,,,,,,,,,,,,,,,,,,,,,,,,,,,,,,,/muse/elements/blink
2026-01-20 05:31:57.209,0.38100034,-0.45106947,-0.3858119,-0.013496214,0.4453515,-0.6629793,-0.49024,0.39949372,1.254211,0.041385043,-0.26493284,1.0045345,1.6174707,0.636809,0.6328357,1.0777806,1.6785908,0.7461936,0.7144249,1.1356121,735.311,735.75354,734.4259,729.46954,721.681,722.7431,712.5649,1268.1194,-0.3631591796875,-0.0260009765625,0.95245361328125,0.441131591796875,0.0299072265625,0.59814453125,5.663457549531507,5.721746179338626,4.244175190138998,3.829074696612069,0.0,0.0,0.0,0.0,0.0,0.0,0.0,0.0,0.0,0.0,0.0,0.0,71.74388,1,1.0,1.0,1.0,1.0,80.45
2026-01-20 05:31:57.410,,,,,,,,,,,,,,,,,,,,,,,,,,,,,,,,,,,,,,,,,,,,,,,,,,,,,,,,,,/muse/elements/jaw_clench
2026-01-20 05:31:58.110,,,,,,,,,,,,,,,,,,,,,,,,,,,,,,,,,,,,,,,,,,,,,,,,,,,,,,,,,,/muse/elements/jaw_clench
2026-01-20 05:31:58.216,-0.016657442,-0.45106947,-0.3858119,-0.10021148,0.4099085,-0.6629793,-0.49024,0.12734795,0.8698115,0.041385043,-0.26493284,0.89017135,1.337363,0.636809,0.6328357,1.4056773,1.4679863,0.7461936,0.7144249,1.4615024,746.63983,741.595,735.3995,739.20526,740.44434,738.0547,736.9926,1215.6351,-0.35455322265625,-0.0257568359375,0.95538330078125,0.1495361328125,-0.46356201171875,-0.560760498046875,5.712377273919366,5.759893188374699,4.313206017690676,3.877902868178242,0.0,0.0,0.0,0.0,0.0,0.0,0.0,0.0,0.0,0.0,0.0,0.0,71.14116,1,1.0,1.0,1.0,1.0,80.45
2026-01-20 05:31:59.220,0.028642854,-0.45106947,-0.3858119,-0.054182757,0.252801,-0.6629793,-0.49024,0.16876623,0.81189966,0.041385043,-0.26493284,0.89017135,1.4044051,0.636809,0.6328357,1.4430614,1.514951,0.7461936,0.7144249,1.4970424,735.66504,737.7007,730.0006,723.0971,659.99207,648.57477,638.0425,1118.1896,-0.36376953125,-0.02020263671875,0.95697021484375,-0.01495361328125,-0.306549072265625,-0.157012939453125,5.732976658798846,5.777318742102377,4.341831533271344,3.8988684643444675,0.0,0.0,0.0,0.0,0.0,0.0,0.0,0.0,0.0,0.0,0.0,0.0,71.285706,1,1.0,1.0,1.0,1.0,80.45
2026-01-20 05:31:59.274,,,,,,,,,,,,,,,,,,,,,,,,,,,,,,,,,,,,,,,,,,,,,,,,,,,,,,,,,,/muse/elements/blink
2026-01-20 05:31:59.742,,,,,,,,,,,,,,,,,,,,,,,,,,,,,,,,,,,,,,,,,,,,,,,,,,,,,,,,,,/muse/elements/jaw_clench
2026-01-20 05:32:00.233,0.028642854,-0.45106947,-0.3858119,0.009167428,0.252801,-0.6629793,-0.49024,0.22030653,0.81189966,0.041385043,-0.26493284,0.89017135,1.4044051,0.636809,0.6328357,1.4675934,1.514951,0.7461936,0.7144249,1.5167108,736.10754,728.319,721.06146,730.3546,759.8273,758.8537,762.1284,1248.2054,-0.3555908203125,-0.028564453125,0.9554443359375,0.13458251953125,-0.9271240234375,-0.10467529296875,5.648809098061655,5.707006175047088,4.2246134039053,3.8173559354361872,0.0,0.0,0.0,0.0,0.0,0.0,0.0,0.0,0.0,0.0,0.0,0.0,71.82214,1,1.0,1.0,1.0,1.0,80.45
2026-01-20 05:32:00.364,,,,,,,,,,,,,,,,,,,,,,,,,,,,,,,,,,,,,,,,,,,,,,,,,,,,,,,,,,/muse/elements/jaw_clench
2026-01-20 05:32:00.854,,,,,,,,,,,,,,,,,,,,,,,,,,,,,,,,,,,,,,,,,,,,,,,,,,,,,,,,,,/muse/elements/jaw_clench
2026-01-20 05:32:01.246,0.028642854,-0.45106947,-0.3858119,0.009167428,0.252801,-0.6629793,-0.49024,0.22030653,0.81189966,0.041385043,-0.26493284,0.89017135,1.4044051,0.636809,0.6328357,1.4675934,1.514951,0.7461936,0.7144249,1.5167108,721.94653,723.1856,722.30054,714.7775,749.3835,745.0467,759.56177,1261.8354,-0.35589599609375,-0.02752685546875,0.95672607421875,0.500946044921875,-0.007476806640625,0.456085205078125,5.666692415897766,5.722631189948263,4.2520487328040435,3.8355444293445866,0.0,0.0,0.0,0.0,0.0,0.0,0.0,0.0,0.0,0.0,0.0,0.0,72.12782,1,2.0,1.0,1.0,2.0,80.45
2026-01-20 05:32:01.731,,,,,,,,,,,,,,,,,,,,,,,,,,,,,,,,,,,,,,,,,,,,,,,,,,,,,,,,,,/muse/elements/blink
2026-01-20 05:32:01.860,,,,,,,,,,,,,,,,,,,,,,,,,,,,,,,,,,,,,,,,,,,,,,,,,,,,,,,,,,/muse/elements/jaw_clench
2026-01-20 05:32:02.258,0.028642854,-0.45106947,-0.3858119,0.009167428,0.252801,-0.6629793,-0.49024,0.22030653,0.81189966,0.041385043,-0.26493284,0.89017135,1.4044051,0.636809,0.6328357,1.4675934,1.514951,0.7461936,0.7144249,1.5167108,730.6202,727.0799,724.77875,719.4683,748.8525,755.8445,777.086,1274.4033,-0.35791015625,-0.02655029296875,0.951904296875,0.127105712890625,-0.321502685546875,-0.545806884765625,5.688268364208569,5.734502539160289,4.280613213170255,3.851901866819255,0.0,0.0,0.0,0.0,0.0,0.0,0.0,0.0,0.0,0.0,0.0,0.0,72.28018,1,2.0,1.0,1.0,2.0,80.45
2026-01-20 05:32:02.735,,,,,,,,,,,,,,,,,,,,,,,,,,,,,,,,,,,,,,,,,,,,,,,,,,,,,,,,,,/muse/elements/jaw_clench
2026-01-20 05:32:03.264,-0.055524338,-0.41440013,-1.1324855,-0.012033412,0.100858085,-0.14167379,-0.8074345,0.30910885,0.51953346,0.2548841,0.14261502,0.67817014,0.77743715,0.6167593,0.5469144,0.89833087,0.7846505,0.7591141,0.6713117,1.0401498,729.7351,723.5397,718.40625,720.79596,773.0147,782.30786,757.9686,1165.0095,-0.35943603515625,-0.02679443359375,0.94775390625,0.381317138671875,-0.11962890625,0.441131591796875,5.707128245476003,5.747350451803638,4.3093607991798395,3.8676184345421167,0.0,0.0,0.0,0.0,0.0,0.0,0.0,0.0,0.0,0.0,0.0,0.0,72.75453,1,1.0,1.0,1.0,1.0,80.43
2026-01-20 05:32:03.397,,,,,,,,,,,,,,,,,,,,,,,,,,,,,,,,,,,,,,,,,,,,,,,,,,,,,,,,,,/muse/elements/blink
2026-01-20 05:32:04.259,,,,,,,,,,,,,,,,,,,,,,,,,,,,,,,,,,,,,,,,,,,,,,,,,,,,,,,,,,/muse/elements/jaw_clench
2026-01-20 05:32:04.277,-0.055524338,-0.41440013,-1.0597368,-0.012033412,0.100858085,-0.14167379,-0.84288013,0.30910885,0.51953346,0.2548841,0.1976532,0.67817014,0.77743715,0.6167593,0.58814704,0.89833087,0.7846505,0.7591141,0.7039301,1.0401498,734.69147,729.5581,718.14075,730.3546,751.5077,757.7916,749.0295,1207.8466,-0.34490966796875,-0.026611328125,0.9599609375,0.186920166015625,-0.538330078125,-0.6878662109375,5.64841236916768,5.694066709582052,4.228550175237823,3.808872040626565,0.0,0.0,0.0,0.0,0.0,0.0,0.0,0.0,0.0,0.0,0.0,0.0,73.54918,1,1.0,1.0,1.0,1.0,80.43
2026-01-20 05:32:05.007,,,,,,,,,,,,,,,,,,,,,,,,,,,,,,,,,,,,,,,,,,,,,,,,,,,,,,,,,,/muse/elements/jaw_clench
2026-01-20 05:32:05.284,-0.055524338,-0.17084326,-0.3033794,0.12525028,0.100858085,-0.3258682,-0.5499961,0.24558307,0.51953346,0.07670757,0.028830837,0.43766075,0.77743715,0.4707686,0.49756157,0.8848022,0.7846505,0.5631428,0.6145818,0.9807866,727.2569,731.94775,741.949,724.95575,485.2805,460.94122,518.02783,545.99585,-0.3526611328125,-0.02880859375,0.95599365234375,0.46356201171875,0.657958984375,0.231781005859375,5.6530815630736955,5.701604558567579,4.233616098037813,3.813937963426555,0.0,0.0,0.0,0.0,0.0,0.0,0.0,0.0,0.0,0.0,0.0,0.0,73.05074,1,1.0,1.0,1.0,1.0,80.43
2026-01-20 05:32:05.853,,,,,,,,,,,,,,,,,,,,,,,,,,,,,,,,,,,,,,,,,,,,,,,,,,,,,,,,,,/muse/elements/jaw_clench
2026-01-20 05:32:06.300,-0.055524338,-0.17084326,-0.4758055,0.15520816,0.100858085,-0.3258682,-0.63901407,0.25081226,0.51953346,0.07670757,-0.081691876,0.4331426,0.77743715,0.4707686,0.26998952,0.8648874,0.7846505,0.5631428,0.34573054,0.9811042,715.9281,732.47876,733.0983,706.2809,495.01617,472.53555,527.0555,515.8152,-0.35693359375,-0.0289306640625,0.955322265625,0.097198486328125,0.201873779296875,0.590667724609375,5.653783468039959,5.702367498748301,4.235721812936604,3.8141821042843858,0.0,0.0,0.0,0.0,0.0,0.0,0.0,0.0,0.0,0.0,0.0,0.0,72.57034,1,1.0,1.0,1.0,1.0,80.43
2026-01-20 05:32:06.503,,,,,,,,,,,,,,,,,,,,,,,,,,,,,,,,,,,,,,,,,,,,,,,,,,,,,,,,,,/muse/elements/jaw_clench
2026-01-20 05:32:07.034,,,,,,,,,,,,,,,,,,,,,,,,,,,,,,,,,,,,,,,,,,,,,,,,,,,,,,,,,,/muse/elements/jaw_clench
2026-01-20 05:32:07.309,-0.055524338,-0.17084326,-0.4758055,0.15520816,0.100858085,-0.3258682,-0.63901407,0.25081226,0.51953346,0.07670757,-0.081691876,0.4331426,0.77743715,0.4707686,0.26998952,0.8648874,0.7846505,0.5631428,0.34573054,0.9811042,732.03625,731.94775,723.0086,725.04425,768.05835,766.3767,766.9078,1332.906,-0.356201171875,-0.03143310546875,0.95513916015625,0.40374755859375,-0.91217041015625,-0.2392578125,5.684850392198936,5.7232720597000695,4.2778055933051995,3.841495362754214,0.0,0.0,0.0,0.0,0.0,0.0,0.0,0.0,0.0,0.0,0.0,0.0,72.515144,1,1.0,1.0,1.0,1.0,80.43
2026-01-20 05:32:07.385,,,,,,,,,,,,,,,,,,,,,,,,,,,,,,,,,,,,,,,,,,,,,,,,,,,,,,,,,,/muse/elements/jaw_clench
2026-01-20 05:32:07.518,,,,,,,,,,,,,,,,,,,,,,,,,,,,,,,,,,,,,,,,,,,,,,,,,,,,,,,,,,/muse/elements/jaw_clench
2026-01-20 05:32:07.735,,,,,,,,,,,,,,,,,,,,,,,,,,,,,,,,,,,,,,,,,,,,,,,,,,,,,,,,,,/muse/elements/blink
2026-01-20 05:32:07.863,,,,,,,,,,,,,,,,,,,,,,,,,,,,,,,,,,,,,,,,,,,,,,,,,,,,,,,,,,/muse/elements/jaw_clench
2026-01-20 05:32:08.313,0.105619326,-0.6955804,-0.3030367,0.13674031,0.14975819,-0.20433901,-0.26596573,0.097274445,0.5264261,0.15948436,0.13859574,0.55557173,0.6562993,0.52278864,0.42914855,0.65507704,0.8205863,0.65723044,0.6293812,0.83203495,745.93176,736.10754,731.4167,741.4179,747.5249,756.464,744.0731,1216.0776,-0.36212158203125,-0.02850341796875,0.95013427734375,-0.55328369140625,-1.03179931640625,-0.725250244140625,5.719609946832606,5.750066518847007,4.3268168705147465,3.87314212145054,0.0,0.0,0.0,0.0,0.0,0.0,0.0,0.0,0.0,0.0,0.0,0.0,72.48581,1,1.0,1.0,1.0,1.0,80.43
2026-01-20 05:32:08.750,,,,,,,,,,,,,,,,,,,,,,,,,,,,,,,,,,,,,,,,,,,,,,,,,,,,,,,,,,/muse/elements/jaw_clench
2026-01-20 05:32:09.227,,,,,,,,,,,,,,,,,,,,,,,,,,,,,,,,,,,,,,,,,,,,,,,,,,,,,,,,,,/muse/elements/blink
2026-01-20 05:32:09.227,,,,,,,,,,,,,,,,,,,,,,,,,,,,,,,,,,,,,,,,,,,,,,,,,,,,,,,,,,/muse/elements/jaw_clench
2026-01-20 05:32:09.323,0.20865446,-0.74609286,-0.23535602,-0.10519602,0.035740733,-0.18166082,-0.23586172,-0.2787673,0.7335894,0.1590701,0.010687545,0.48171413,0.66930294,0.4733181,0.35355988,0.7160916,0.826621,0.6225484,0.5336362,0.75742596,708.4935,709.0246,715.8396,702.91766,763.3675,755.933,775.7584,1279.4482,-0.3487548828125,-0.02178955078125,0.95843505859375,0.366363525390625,0.059814453125,0.5682373046875,5.637059819278544,5.686559378203753,4.213047230765563,3.797855184416947,0.0,0.0,0.0,0.0,0.0,0.0,0.0,0.0,0.0,0.0,0.0,0.0,72.49693,1,1.0,1.0,1.0,1.0,80.39
2026-01-20 05:32:09.475,,,,,,,,,,,,,,,,,,,,,,,,,,,,,,,,,,,,,,,,,,,,,,,,,,,,,,,,,,/muse/elements/jaw_clench
2026-01-20 05:32:09.860,,,,,,,,,,,,,,,,,,,,,,,,,,,,,,,,,,,,,,,,,,,,,,,,,,,,,,,,,,/muse/elements/jaw_clench
2026-01-20 05:32:10.335,0.3315455,-0.74609286,-0.23535602,-0.09700058,0.03835953,-0.18166082,-0.23586172,0.2774138,0.7335894,0.1590701,0.010687545,1.11833,0.616814,0.4733181,0.35355988,1.3404046,0.63284194,0.6225484,0.5336362,1.3101758,706.90045,710.88324,714.9545,698.5809,749.472,752.83527,762.1284,1270.0665,-0.36956787109375,-0.025390625,0.952392578125,0.46356201171875,-0.590667724609375,0.785064697265625,5.650426531244785,5.698156068950719,4.231479865531793,3.8088110054121067,0.0,0.0,0.0,0.0,0.0,0.0,0.0,0.0,0.0,0.0,0.0,0.0,73.35957,1,1.0,1.0,1.0,1.0,80.39
2026-01-20 05:32:10.477,,,,,,,,,,,,,,,,,,,,,,,,,,,,,,,,,,,,,,,,,,,,,,,,,,,,,,,,,,/muse/elements/jaw_clench
2026-01-20 05:32:11.338,0.3315455,-0.74609286,-0.23535602,-0.09700058,0.03835953,-0.18166082,-0.23586172,0.2774138,0.7335894,0.1590701,0.010687545,1.11833,0.616814,0.4733181,0.35355988,1.3404046,0.63284194,0.6225484,0.5336362,1.3101758,719.0258,717.96375,717.52124,712.2108,650.8759,636.7149,660.52313,793.9022,-0.36505126953125,-0.0235595703125,0.95025634765625,0.949554443359375,0.1495361328125,1.203765869140625,5.690099420642301,5.726323820422955,4.2868998402594,3.8461645566602294,0.0,0.0,0.0,0.0,0.0,0.0,0.0,0.0,0.0,0.0,0.0,0.0,74.47504,1,1.0,1.0,1.0,1.0,80.39
2026-01-20 05:32:11.771,,,,,,,,,,,,,,,,,,,,,,,,,,,,,,,,,,,,,,,,,,,,,,,,,,,,,,,,,,/muse/elements/jaw_clench
2026-01-20 05:32:11.774,,,,,,,,,,,,,,,,,,,,,,,,,,,,,,,,,,,,,,,,,,,,,,,,,,,,,,,,,,/muse/elements/blink
2026-01-20 05:32:12.353,0.05510022,-0.74609286,-0.23535602,-0.09700058,0.59636456,-0.18166082,-0.23586172,0.2774138,1.2806891,0.1590701,0.010687545,1.11833,1.6329907,0.4733181,0.35355988,1.3404046,1.6714272,0.6225484,0.5336362,1.3101758,707.874,707.07745,711.41425,706.81195,745.1352,752.83527,771.59863,1258.8262,-0.3648681640625,-0.02178955078125,0.9508056640625,-0.538330078125,-0.680389404296875,0.231781005859375,5.677648236892926,5.706212717259137,4.268863934387144,3.8263586295687,0.0,0.0,0.0,0.0,0.0,0.0,0.0,0.0,0.0,0.0,0.0,0.0,74.65818,1,1.0,1.0,1.0,1.0,80.39
2026-01-20 05:32:12.386,,,,,,,,,,,,,,,,,,,,,,,,,,,,,,,,,,,,,,,,,,,,,,,,,,,,,,,,,,/muse/elements/jaw_clench
2026-01-20 05:32:12.518,,,,,,,,,,,,,,,,,,,,,,,,,,,,,,,,,,,,,,,,,,,,,,,,,,,,,,,,,,/muse/elements/blink
2026-01-20 05:32:12.770,,,,,,,,,,,,,,,,,,,,,,,,,,,,,,,,,,,,,,,,,,,,,,,,,,,,,,,,,,/muse/elements/jaw_clench
2026-01-20 05:32:13.360,0.43435952,-0.74609286,-0.23535602,0.35308677,0.7390561,-0.18166082,-0.23586172,0.6892696,1.2726926,0.1590701,0.010687545,1.2767318,1.7433646,0.4733181,0.35355988,1.7063234,1.7775594,0.6225484,0.5336362,1.7818334,740.7984,737.3466,739.8248,730.7972,644.592,633.4401,630.3424,1065.9708,-0.3656005859375,-0.0267333984375,0.95159912109375,-0.291595458984375,-1.256103515625,-0.456085205078125,5.632360107765301,5.675847698066423,4.204410747919796,3.7863195288844382,0.0,0.0,0.0,0.0,0.0,0.0,0.0,0.0,0.0,0.0,0.0,0.0,75.150856,1,1.0,4.0,4.0,1.0,80.39
2026-01-20 05:32:13.372,,,,,,,,,,,,,,,,,,,,,,,,,,,,,,,,,,,,,,,,,,,,,,,,,,,,,,,,,,/muse/elements/blink
2026-01-20 05:32:13.853,,,,,,,,,,,,,,,,,,,,,,,,,,,,,,,,,,,,,,,,,,,,,,,,,,,,,,,,,,/muse/elements/jaw_clench
2026-01-20 05:32:14.004,,,,,,,,,,,,,,,,,,,,,,,,,,,,,,,,,,,,,,,,,,,,,,,,,,,,,,,,,,/muse/elements/jaw_clench
2026-01-20 05:32:14.363,0.43089074,-0.74609286,-0.23535602,0.42370826,0.68932265,-0.18166082,-0.23586172,0.8158487,1.2587044,0.1590701,0.010687545,1.3183445,1.7306108,0.4733181,0.35355988,1.7360466,1.7693981,0.6225484,0.5336362,1.7931569,727.1684,726.9029,727.0799,718.5833,739.11676,740.26733,753.10077,1246.0813,-0.35919189453125,-0.02459716796875,0.9552001953125,0.0897216796875,-0.31402587890625,0.157012939453125,5.6723076556278755,5.7088067138735905,4.257053620389576,3.822513411057864,0.0,0.0,0.0,0.0,0.0,0.0,0.0,0.0,0.0,0.0,0.0,0.0,75.32083,1,1.0,1.0,1.0,1.0,80.37
2026-01-20 05:32:14.467,,,,,,,,,,,,,,,,,,,,,,,,,,,,,,,,,,,,,,,,,,,,,,,,,,,,,,,,,,/muse/elements/jaw_clench
2026-01-20 05:32:14.982,,,,,,,,,,,,,,,,,,,,,,,,,,,,,,,,,,,,,,,,,,,,,,,,,,,,,,,,,,/muse/elements/blink
2026-01-20 05:32:15.368,0.3951985,-0.74609286,-0.23535602,0.29245603,0.63775885,-0.18166082,-0.23586172,0.80512184,1.2475121,0.1590701,0.010687545,1.307116,1.7074177,0.4733181,0.35355988,1.7081418,1.7369528,0.6225484,0.5336362,1.7000744,739.20526,738.67426,733.8064,728.67303,562.9891,551.3062,560.24536,831.60596,-0.36431884765625,-0.024658203125,0.9503173828125,0.411224365234375,-0.777587890625,0.79254150390625,5.712774002813342,5.741948835324131,4.315586391054526,3.8633154519228476,0.0,0.0,0.0,0.0,0.0,0.0,0.0,0.0,0.0,0.0,0.0,0.0,74.467514,1,1.0,1.0,1.0,1.0,80.37
2026-01-20 05:32:15.849,,,,,,,,,,,,,,,,,,,,,,,,,,,,,,,,,,,,,,,,,,,,,,,,,,,,,,,,,,/muse/elements/jaw_clench
2026-01-20 05:32:16.149,,,,,,,,,,,,,,,,,,,,,,,,,,,,,,,,,,,,,,,,,,,,,,,,,,,,,,,,,,/muse/elements/blink
2026-01-20 05:32:16.383,0.3951985,-0.74609286,-0.23535602,0.29245603,0.63775885,-0.18166082,-0.23586172,0.80512184,1.2475121,0.1590701,0.010687545,1.307116,1.7074177,0.4733181,0.35355988,1.7081418,1.7369528,0.6225484,0.5336362,1.7000744,718.7603,728.319,734.0719,712.2993,762.2169,766.2882,790.539,1284.2275,-0.36004638671875,-0.02569580078125,0.95172119140625,-0.2392578125,-1.435546875,0.61309814453125,5.6700188350857115,5.697301575948311,4.25482583506187,3.8150976325012516,0.0,0.0,0.0,0.0,0.0,0.0,0.0,0.0,0.0,0.0,0.0,0.0,74.06754,1,1.0,1.0,1.0,1.0,80.37
2026-01-20 05:32:16.483,,,,,,,,,,,,,,,,,,,,,,,,,,,,,,,,,,,,,,,,,,,,,,,,,,,,,,,,,,/muse/elements/jaw_clench
2026-01-20 05:32:16.587,,,,,,,,,,,,,,,,,,,,,,,,,,,,,,,,,,,,,,,,,,,,,,,,,,,,,,,,,,/muse/elements/blink
2026-01-20 05:32:17.389,0.077449694,-0.74609286,-0.23535602,-0.15878594,0.5236002,-0.18166082,-0.23586172,0.42802516,1.2145727,0.1590701,0.010687545,1.2421374,1.6156119,0.4733181,0.35355988,1.6646194,1.6634637,0.6225484,0.5336362,1.6600847,727.4339,720.4419,714.33496,718.14075,490.67935,473.86316,502.3622,611.7561,-0.35687255859375,-0.031494140625,0.9542236328125,-0.067291259765625,-0.5682373046875,-0.19439697265625,5.654943137114656,5.6920525475049475,4.234379038218535,3.806369596833798,0.0,0.0,0.0,0.0,0.0,0.0,0.0,0.0,0.0,0.0,0.0,0.0,73.96744,1,1.0,1.0,1.0,1.0,80.37
2026-01-20 05:32:17.611,,,,,,,,,,,,,,,,,,,,,,,,,,,,,,,,,,,,,,,,,,,,,,,,,,,,,,,,,,/muse/elements/jaw_clench
2026-01-20 05:32:17.725,,,,,,,,,,,,,,,,,,,,,,,,,,,,,,,,,,,,,,,,,,,,,,,,,,,,,,,,,,/muse/elements/jaw_clench
2026-01-20 05:32:18.242,,,,,,,,,,,,,,,,,,,,,,,,,,,,,,,,,,,,,,,,,,,,,,,,,,,,,,,,,,/muse/elements/blink
2026-01-20 05:32:18.339,,,,,,,,,,,,,,,,,,,,,,,,,,,,,,,,,,,,,,,,,,,,,,,,,,,,,,,,,,/muse/elements/jaw_clench
2026-01-20 05:32:18.391,0.14528792,-0.74609286,-0.23535602,-0.053727113,0.47228682,-0.18166082,-0.23586172,0.34098276,1.173152,0.1590701,0.010687545,1.2481374,1.53157,0.4733181,0.35355988,1.5535921,1.5648656,0.6225484,0.5336362,1.5414459,726.5489,720.53046,714.866,722.38904,509.00018,484.04138,518.7359,548.474,-0.36041259765625,-0.02935791015625,0.95782470703125,0.43365478515625,0.34393310546875,0.740203857421875,5.676030803709796,5.7130486612784015,4.265934244093174,3.8289221085759246,0.0,0.0,0.0,0.0,0.0,0.0,0.0,0.0,0.0,0.0,0.0,0.0,73.41976,1,1.0,1.0,1.0,1.0,80.37
2026-01-20 05:32:18.738,,,,,,,,,,,,,,,,,,,,,,,,,,,,,,,,,,,,,,,,,,,,,,,,,,,,,,,,,,/muse/elements/jaw_clench
2026-01-20 05:32:18.871,,,,,,,,,,,,,,,,,,,,,,,,,,,,,,,,,,,,,,,,,,,,,,,,,,,,,,,,,,/muse/elements/blink
2026-01-20 05:32:19.396,0.16853195,-0.74609286,-0.23535602,0.015266124,0.35937384,-0.18166082,-0.23586172,0.20871758,0.8674282,0.1590701,0.010687545,0.98012245,1.3918779,0.4733181,0.35355988,1.3979129,1.3801705,0.6225484,0.5336362,1.3525515,737.5237,744.3386,750.00305,737.7007,768.14685,749.2065,753.98584,1207.404,-0.36248779296875,-0.0205078125,0.95184326171875,0.059814453125,-0.351409912109375,0.16448974609375,5.693547910259161,5.724187587916935,4.285434995112414,3.8409155282168657,0.0,0.0,0.0,0.0,0.0,0.0,0.0,0.0,0.0,0.0,0.0,0.0,72.469894,1,1.0,1.0,1.0,1.0,80.37
2026-01-20 05:32:19.487,,,,,,,,,,,,,,,,,,,,,,,,,,,,,,,,,,,,,,,,,,,,,,,,,,,,,,,,,,/muse/elements/blink
2026-01-20 05:32:19.969,,,,,,,,,,,,,,,,,,,,,,,,,,,,,,,,,,,,,,,,,,,,,,,,,,,,,,,,,,/muse/elements/blink
2026-01-20 05:32:20.402,0.31327328,-0.74609286,-0.23535602,0.015266124,0.5312581,-0.18166082,-0.23586172,0.20871758,1.2494316,0.1590701,0.010687545,0.98012245,1.4492532,0.4733181,0.35355988,1.3979129,1.560499,0.6225484,0.5336362,1.3525515,722.9201,715.39703,706.1924,722.30054,517.31976,484.83795,528.02905,488.5552,-0.357666015625,-0.0321044921875,0.9559326171875,0.3289794921875,-0.8074951171875,0.299072265625,5.721776696945855,5.747014758124121,4.325565648618363,3.8687475860095843,0.0,0.0,0.0,0.0,0.0,0.0,0.0,0.0,0.0,0.0,0.0,0.0,72.03438,1,1.0,1.0,1.0,1.0,80.34
2026-01-20 05:32:20.486,,,,,,,,,,,,,,,,,,,,,,,,,,,,,,,,,,,,,,,,,,,,,,,,,,,,,,,,,,/muse/elements/jaw_clench
2026-01-20 05:32:21.364,,,,,,,,,,,,,,,,,,,,,,,,,,,,,,,,,,,,,,,,,,,,,,,,,,,,,,,,,,/muse/elements/blink
2026-01-20 05:32:21.405,0.45727408,-0.74609286,-0.23535602,0.015266124,0.53661656,-0.18166082,-0.23586172,0.20871758,1.2444189,0.1590701,0.010687545,0.98012245,1.4956641,0.4733181,0.35355988,1.3979129,1.5634158,0.6225484,0.5336362,1.3525515,754.42834,751.5962,756.90656,741.8605,763.3675,754.5169,728.76154,1146.9541,-0.36029052734375,-0.02838134765625,0.94775390625,0.351409912109375,-0.157012939453125,-0.16448974609375,5.756902462866271,5.776372696278282,4.375919700545979,3.9059485492215624,0.0,0.0,0.0,0.0,0.0,0.0,0.0,0.0,0.0,0.0,0.0,0.0,71.91312,1,1.0,1.0,1.0,1.0,80.34
2026-01-20 05:32:22.097,,,,,,,,,,,,,,,,,,,,,,,,,,,,,,,,,,,,,,,,,,,,,,,,,,,,,,,,,,/muse/elements/blink
2026-01-20 05:32:22.413,0.21207999,-0.74609286,-0.23535602,0.15764645,0.42939088,-0.18166082,-0.23586172,0.43324175,1.1548766,0.1590701,0.010687545,1.100742,1.3910096,0.4733181,0.35355988,1.4576364,1.4248352,0.6225484,0.5336362,1.5259479,743.01105,741.3294,746.81683,738.1432,749.2065,752.65826,755.1364,1203.8638,-0.3526611328125,-0.0306396484375,0.9588623046875,0.321502685546875,-0.538330078125,-0.6878662109375,5.6604973416303075,5.690801325608564,4.245029683141406,3.808749970197649,0.0,0.0,0.0,0.0,0.0,0.0,0.0,0.0,0.0,0.0,0.0,0.0,70.98177,1,1.0,1.0,1.0,1.0,80.34
2026-01-20 05:32:22.665,,,,,,,,,,,,,,,,,,,,,,,,,,,,,,,,,,,,,,,,,,,,,,,,,,,,,,,,,,/muse/elements/jaw_clench
2026-01-20 05:32:22.790,,,,,,,,,,,,,,,,,,,,,,,,,,,,,,,,,,,,,,,,,,,,,,,,,,,,,,,,,,/muse/elements/blink
2026-01-20 05:32:23.419,-0.021443099,-0.74609286,-0.23535602,0.17302689,0.38639855,-0.18166082,-0.23586172,0.41448438,0.8908245,0.1590701,0.010687545,1.0663,1.190158,0.4733181,0.35355988,1.3860388,1.3334605,0.6225484,0.5336362,1.460285,733.9834,737.6122,735.2225,729.46954,741.1524,745.4892,723.2741,1309.2749,-0.35247802734375,-0.02520751953125,0.95703125,0.3289794921875,-0.441131591796875,0.2691650390625,5.651006365782133,5.684087452018215,4.235172496006485,3.8003271106024843,0.0,0.0,0.0,0.0,0.0,0.0,0.0,0.0,0.0,0.0,0.0,0.0,70.659744,1,1.0,1.0,1.0,1.0,80.34
2026-01-20 05:32:23.610,,,,,,,,,,,,,,,,,,,,,,,,,,,,,,,,,,,,,,,,,,,,,,,,,,,,,,,,,,/muse/elements/jaw_clench
2026-01-20 05:32:23.726,,,,,,,,,,,,,,,,,,,,,,,,,,,,,,,,,,,,,,,,,,,,,,,,,,,,,,,,,,/muse/elements/blink
2026-01-20 05:32:24.427,0.10352039,-0.74609286,-0.23535602,0.17302689,0.48194012,-0.18166082,-0.23586172,0.41448438,0.8971114,0.1590701,0.010687545,1.0663,1.3215563,0.4733181,0.35355988,1.3860388,1.4370741,0.6225484,0.5336362,1.460285,739.47076,737.1696,740.35583,736.9926,725.13275,716.9902,695.4831,1240.4169,-0.357666015625,-0.0302734375,0.9541015625,0.276641845703125,0.575714111328125,0.231781005859375,5.65884939083995,5.689244927639892,4.245609517678755,3.805576139045848,0.0,0.0,0.0,0.0,0.0,0.0,0.0,0.0,0.0,0.0,0.0,0.0,71.20093,1,1.0,1.0,1.0,1.0,80.34
2026-01-20 05:32:24.740,,,,,,,,,,,,,,,,,,,,,,,,,,,,,,,,,,,,,,,,,,,,,,,,,,,,,,,,,,/muse/elements/jaw_clench
2026-01-20 05:32:25.355,,,,,,,,,,,,,,,,,,,,,,,,,,,,,,,,,,,,,,,,,,,,,,,,,,,,,,,,,,/muse/elements/jaw_clench
2026-01-20 05:32:25.437,0.022423679,-0.74609286,-0.23535602,0.17302689,0.50598675,-0.18166082,-0.23586172,0.41448438,0.87150216,0.1590701,0.010687545,1.0663,1.2888207,0.4733181,0.35355988,1.3860388,1.3929616,0.6225484,0.5336362,1.460285,742.2145,738.4087,737.2581,736.01904,721.504,728.319,726.7259,1090.133,-0.353759765625,-0.02313232421875,0.95684814453125,0.112152099609375,-0.650482177734375,0.31402587890625,5.681157761724245,5.70480890732661,4.275272631905205,3.824283432277138,0.0,0.0,0.0,0.0,0.0,0.0,0.0,0.0,0.0,0.0,0.0,0.0,70.96105,1,1.0,1.0,1.0,1.0,80.34
2026-01-20 05:32:26.439,-0.21751922,-0.74609286,-0.603389,0.17302689,0.22554684,-0.18166082,-0.3890089,0.41448438,0.87215245,0.1590701,0.29404363,1.0663,1.194846,0.4733181,0.7228802,1.3860388,1.3049499,0.6225484,0.8802743,1.460285,718.8488,723.3626,726.4603,708.1395,748.0559,745.2237,741.595,1188.1981,-0.3516845703125,-0.024658203125,0.95263671875,0.11962890625,-0.19439697265625,-0.171966552734375,5.7248589752759695,5.739385356316906,4.338016832367737,3.867771022578261,0.0,0.0,0.0,0.0,0.0,0.0,0.0,0.0,0.0,0.0,0.0,0.0,69.56335,1,1.0,1.0,1.0,1.0,80.33
2026-01-20 05:32:26.868,,,,,,,,,,,,,,,,,,,,,,,,,,,,,,,,,,,,,,,,,,,,,,,,,,,,,,,,,,/muse/elements/jaw_clench
2026-01-20 05:32:27.447,-0.35346627,-0.8092395,-0.603389,0.17302689,0.19810648,-0.1137519,-0.3890089,0.41448438,0.79865426,0.44529703,0.29404363,1.0663,1.2174451,0.93390226,0.7228802,1.3860388,1.3163692,1.0866756,0.8802743,1.460285,721.85803,724.77875,734.69147,718.5833,751.1536,744.6042,736.7271,1046.0569,-0.354248046875,-0.02642822265625,0.9581298828125,-0.13458251953125,-0.79254150390625,0.142059326171875,5.745000596047016,5.7574822974036195,4.368259781131536,3.8909338864649645,0.0,0.0,0.0,0.0,0.0,0.0,0.0,0.0,0.0,0.0,0.0,0.0,68.77654,1,1.0,1.0,1.0,1.0,80.33
2026-01-20 05:32:27.863,,,,,,,,,,,,,,,,,,,,,,,,,,,,,,,,,,,,,,,,,,,,,,,,,,,,,,,,,,/muse/elements/blink
2026-01-20 05:32:27.982,,,,,,,,,,,,,,,,,,,,,,,,,,,,,,,,,,,,,,,,,,,,,,,,,,,,,,,,,,/muse/elements/jaw_clench
2026-01-20 05:32:28.463,-0.35346627,-1.0601441,-0.603389,0.17302689,0.19810648,-0.2316603,-0.3890089,0.41448438,0.79865426,0.2766506,0.29404363,1.0663,1.2174451,0.80780464,0.7228802,1.3860388,1.3163692,1.0509921,0.8802743,1.460285,742.303,730.5317,725.39825,729.02704,561.6615,546.8809,551.7488,840.6336,-0.35369873046875,-0.036865234375,0.9549560546875,0.07476806640625,-0.441131591796875,-0.8673095703125,5.684636768948335,5.696019836444699,4.284977231003982,3.8221166821638892,0.0,0.0,0.0,0.0,0.0,0.0,0.0,0.0,0.0,0.0,0.0,0.0,68.906,1,1.0,1.0,1.0,1.0,80.33
2026-01-20 05:32:28.599,,,,,,,,,,,,,,,,,,,,,,,,,,,,,,,,,,,,,,,,,,,,,,,,,,,,,,,,,,/muse/elements/jaw_clench
2026-01-20 05:32:28.729,,,,,,,,,,,,,,,,,,,,,,,,,,,,,,,,,,,,,,,,,,,,,,,,,,,,,,,,,,/muse/elements/blink
2026-01-20 05:32:29.093,,,,,,,,,,,,,,,,,,,,,,,,,,,,,,,,,,,,,,,,,,,,,,,,,,,,,,,,,,/muse/elements/jaw_clench
2026-01-20 05:32:29.249,,,,,,,,,,,,,,,,,,,,,,,,,,,,,,,,,,,,,,,,,,,,,,,,,,,,,,,,,,/muse/elements/jaw_clench
2026-01-20 05:32:29.380,,,,,,,,,,,,,,,,,,,,,,,,,,,,,,,,,,,,,,,,,,,,,,,,,,,,,,,,,,/muse/elements/blink
2026-01-20 05:32:29.480,-0.35346627,-0.6699219,-0.7643187,0.17302689,0.19810648,-0.2979715,-0.36162654,0.41448438,0.79865426,0.29589927,0.21497288,1.0663,1.2174451,0.87740344,0.7764312,1.3860388,1.3163692,0.943909,0.8429503,1.460285,721.85803,718.8488,713.89246,717.78674,754.07434,750.9766,777.1745,1289.184,-0.35174560546875,-0.03399658203125,0.9573974609375,0.366363525390625,0.19439697265625,0.418701171875,5.681188279331474,5.7012383472808335,4.2823832343895285,3.8259619006747254,0.0,0.0,0.0,0.0,0.0,0.0,0.0,0.0,0.0,0.0,0.0,0.0,68.738716,1,2.0,1.0,1.0,2.0,80.33
2026-01-20 05:32:29.846,,,,,,,,,,,,,,,,,,,,,,,,,,,,,,,,,,,,,,,,,,,,,,,,,,,,,,,,,,/muse/elements/jaw_clench
2026-01-20 05:32:30.490,-0.35346627,-0.6465422,-0.54556376,0.17302689,0.19810648,-0.21760613,-0.47073558,0.41448438,0.79865426,0.29866472,0.20218144,1.0663,1.2174451,0.8731404,0.7945344,1.3860388,1.3163692,0.94572073,0.883315,1.460285,726.5489,735.93054,740.5329,725.6638,744.8697,750.8881,753.54333,1190.0568,-0.3551025390625,-0.0247802734375,0.9534912109375,0.1495361328125,-0.665435791015625,0.299072265625,5.673131631023055,5.695867248408555,4.270817061249791,3.8168676537205255,0.0,0.0,0.0,0.0,0.0,0.0,0.0,0.0,0.0,0.0,0.0,0.0,68.959305,1,2.0,1.0,1.0,2.0,80.33
2026-01-20 05:32:30.507,,,,,,,,,,,,,,,,,,,,,,,,,,,,,,,,,,,,,,,,,,,,,,,,,,,,,,,,,,/muse/elements/jaw_clench
2026-01-20 05:32:30.744,,,,,,,,,,,,,,,,,,,,,,,,,,,,,,,,,,,,,,,,,,,,,,,,,,,,,,,,,,/muse/elements/jaw_clench
2026-01-20 05:32:30.773,,,,,,,,,,,,,,,,,,,,,,,,,,,,,,,,,,,,,,,,,,,,,,,,,,,,,,,,,,/muse/elements/blink
2026-01-20 05:32:31.291,,,,,,,,,,,,,,,,,,,,,,,,,,,,,,,,,,,,,,,,,,,,,,,,,,,,,,,,,,/muse/elements/jaw_clench
2026-01-20 05:32:31.505,-0.35346627,-0.6551307,-0.40067473,0.17302689,0.19810648,-0.10630627,-0.6120382,0.41448438,0.79865426,0.18271786,0.02751142,1.0663,1.2174451,0.8103356,0.7170821,1.3860388,1.3163692,0.8974131,0.84847665,1.460285,716.2821,722.21204,732.8328,712.2993,772.39514,770.271,758.23413,1174.6566,-0.3546142578125,-0.0345458984375,0.95703125,0.04486083984375,-0.73272705078125,-0.8074951171875,5.6947075793338575,5.708409984979615,4.302738478411177,3.836093746274706,0.0,0.0,0.0,0.0,0.0,0.0,0.0,0.0,0.0,0.0,0.0,0.0,69.777336,1,2.0,1.0,1.0,2.0,80.32
2026-01-20 05:32:31.986,,,,,,,,,,,,,,,,,,,,,,,,,,,,,,,,,,,,,,,,,,,,,,,,,,,,,,,,,,/muse/elements/jaw_clench
2026-01-20 05:32:32.518,-0.2014444,-0.33893257,-0.20275356,0.08029177,-0.038966674,-0.44308156,-0.22849245,0.119763434,0.8652104,0.27958295,0.12762666,0.7127835,0.8033983,0.6669259,0.61584926,0.83967805,0.8134522,0.76205206,0.6807979,0.9985288,733.5409,729.8236,727.2569,730.5317,778.0596,771.15607,733.36383,1159.8761,-0.353271484375,-0.04315185546875,0.94989013671875,0.500946044921875,0.07476806640625,-0.381317138671875,5.719884605297666,5.728429535321746,4.33661302243521,3.858646258016832,0.0,0.0,0.0,0.0,0.0,0.0,0.0,0.0,0.0,0.0,0.0,0.0,70.17,1,1.0,1.0,1.0,1.0,80.32
2026-01-20 05:32:32.886,,,,,,,,,,,,,,,,,,,,,,,,,,,,,,,,,,,,,,,,,,,,,,,,,,,,,,,,,,/muse/elements/jaw_clench
2026-01-20 05:32:33.344,,,,,,,,,,,,,,,,,,,,,,,,,,,,,,,,,,,,,,,,,,,,,,,,,,,,,,,,,,/muse/elements/jaw_clench
2026-01-20 05:32:33.533,-0.39583212,-0.3948954,-0.3083841,-0.12884936,-0.19110408,-0.4919787,-0.5189232,0.05124557,0.849418,0.26772827,0.078500405,0.63041455,0.7185264,0.61490005,0.3885251,0.5948809,0.79038835,0.72386676,0.529654,0.742408,736.5501,730.4431,722.6546,729.5581,752.92377,779.03314,776.3779,1359.1925,-0.3543701171875,-0.031494140625,0.95599365234375,-0.142059326171875,-1.607513427734375,0.530853271484375,5.655706077295377,5.666234651789333,4.253299954700426,3.79349116658322,0.0,0.0,0.0,0.0,0.0,0.0,0.0,0.0,0.0,0.0,0.0,0.0,70.31014,1,1.0,1.0,1.0,1.0,80.32
2026-01-20 05:32:33.536,,,,,,,,,,,,,,,,,,,,,,,,,,,,,,,,,,,,,,,,,,,,,,,,,,,,,,,,,,/muse/elements/jaw_clench
2026-01-20 05:32:33.962,,,,,,,,,,,,,,,,,,,,,,,,,,,,,,,,,,,,,,,,,,,,,,,,,,,,,,,,,,/muse/elements/jaw_clench
2026-01-20 05:32:34.245,,,,,,,,,,,,,,,,,,,,,,,,,,,,,,,,,,,,,,,,,,,,,,,,,,,,,,,,,,/muse/elements/jaw_clench
2026-01-20 05:32:34.514,,,,,,,,,,,,,,,,,,,,,,,,,,,,,,,,,,,,,,,,,,,,,,,,,,,,,,,,,,/muse/elements/blink
2026-01-20 05:32:34.542,-0.3513767,-1.0051137,-0.89268905,-0.029268384,-0.2705161,-0.46821856,-0.7767141,-0.19519831,0.56426877,0.31291252,0.24618967,0.6486524,0.6844148,0.6416636,0.54807425,0.8714925,0.83309,0.7554158,0.6245307,0.8864759,703.18317,702.0326,710.3522,700.35095,743.5421,742.83405,745.66626,1169.7888,-0.35284423828125,-0.04486083984375,0.95751953125,0.179443359375,-0.37384033203125,-0.814971923828125,5.627233149750852,5.643102305509859,4.210666857401712,3.7621495839591828,0.0,0.0,0.0,0.0,0.0,0.0,0.0,0.0,0.0,0.0,0.0,0.0,70.88383,1,1.0,1.0,1.0,1.0,80.32
2026-01-20 05:32:34.878,,,,,,,,,,,,,,,,,,,,,,,,,,,,,,,,,,,,,,,,,,,,,,,,,,,,,,,,,,/muse/elements/jaw_clench
2026-01-20 05:32:35.112,,,,,,,,,,,,,,,,,,,,,,,,,,,,,,,,,,,,,,,,,,,,,,,,,,,,,,,,,,/muse/elements/jaw_clench
2026-01-20 05:32:35.552,-0.3136964,-0.5904902,-0.6273941,0.05219844,-0.18794997,-0.22018579,-0.35505977,-0.010463292,0.99548703,0.82694846,0.6607771,1.1299175,1.1789278,1.0474138,0.9737442,1.2375432,1.1920497,1.0829287,0.9755764,1.1909832,730.9742,730.7087,732.9213,720.53046,763.89856,759.1192,742.83405,1317.683,-0.35272216796875,-0.041748046875,0.95660400390625,0.0897216796875,-0.73272705078125,0.10467529296875,5.627660396252057,5.644811291514674,4.212284290584841,3.7630651121760486,0.0,0.0,0.0,0.0,0.0,0.0,0.0,0.0,0.0,0.0,0.0,0.0,70.08979,1,1.0,1.0,1.0,1.0,80.32
2026-01-20 05:32:36.176,,,,,,,,,,,,,,,,,,,,,,,,,,,,,,,,,,,,,,,,,,,,,,,,,,,,,,,,,,/muse/elements/blink
2026-01-20 05:32:36.556,-0.028815608,-0.51995826,-0.34947705,-0.3966169,0.02429042,-0.1431394,-0.34613544,-0.46724108,0.9798974,0.8428953,0.30368033,0.14783384,1.3203843,0.908556,0.5499768,0.2740537,1.3037808,0.9551353,0.6134562,0.2180564,715.22003,717.1672,713.98096,713.62695,620.1642,616.4469,635.65283,694.5096,-0.355224609375,-0.04095458984375,0.95684814453125,0.321502685546875,0.777587890625,0.665435791015625,5.640050544786972,5.656316429439954,4.230198126028181,3.775882507212169,0.0,0.0,0.0,0.0,0.0,0.0,0.0,0.0,0.0,0.0,0.0,0.0,68.46021,1,1.0,1.0,1.0,1.0,80.32
2026-01-20 05:32:36.867,,,,,,,,,,,,,,,,,,,,,,,,,,,,,,,,,,,,,,,,,,,,,,,,,,,,,,,,,,/muse/elements/jaw_clench
2026-01-20 05:32:37.112,,,,,,,,,,,,,,,,,,,,,,,,,,,,,,,,,,,,,,,,,,,,,,,,,,,,,,,,,,/muse/elements/blink
2026-01-20 05:32:37.470,,,,,,,,,,,,,,,,,,,,,,,,,,,,,,,,,,,,,,,,,,,,,,,,,,,,,,,,,,/muse/elements/jaw_clench
2026-01-20 05:32:37.571,-0.028815608,-0.5364697,-0.23790056,-0.3966169,0.02429042,0.254735,-0.6812315,-0.46724108,0.9798974,0.8137094,-0.5387918,0.14783384,1.3203843,1.2451199,-0.011905011,0.2740537,1.3037808,1.2573335,0.21256442,0.2180564,719.0258,719.2028,713.1844,713.80396,669.1082,662.8243,684.2428,825.853,-0.34649658203125,-0.03240966796875,0.964599609375,-0.07476806640625,-0.680389404296875,0.5682373046875,5.6566216055122425,5.669072789261617,4.250217676370312,3.788821972677205,0.0,0.0,0.0,0.0,0.0,0.0,0.0,0.0,0.0,0.0,0.0,0.0,67.46342,1,1.0,1.0,1.0,1.0,80.29
2026-01-20 05:32:38.092,,,,,,,,,,,,,,,,,,,,,,,,,,,,,,,,,,,,,,,,,,,,,,,,,,,,,,,,,,/muse/elements/jaw_clench
2026-01-20 05:32:38.352,,,,,,,,,,,,,,,,,,,,,,,,,,,,,,,,,,,,,,,,,,,,,,,,,,,,,,,,,,/muse/elements/jaw_clench
2026-01-20 05:32:38.406,,,,,,,,,,,,,,,,,,,,,,,,,,,,,,,,,,,,,,,,,,,,,,,,,,,,,,,,,,/muse/elements/blink
2026-01-20 05:32:38.584,-0.007880647,-0.5364697,-0.23790056,0.08632434,0.73328865,0.254735,-0.6812315,0.68949527,1.2506208,0.8137094,-0.5387918,1.2780297,1.5402162,1.2451199,-0.011905011,1.6231706,1.5747962,1.2573335,0.21256442,1.6220257,718.49475,715.13153,706.63495,711.06024,734.86847,745.2237,748.4099,1183.5958,-0.3612060546875,-0.036865234375,0.96319580078125,0.142059326171875,-0.94207763671875,0.0897216796875,5.711370192880814,5.718724936222969,4.329258279093055,3.848636482845767,0.0,0.0,0.0,0.0,0.0,0.0,0.0,0.0,0.0,0.0,0.0,0.0,68.13485,1,1.0,1.0,1.0,1.0,80.29
2026-01-20 05:32:38.717,,,,,,,,,,,,,,,,,,,,,,,,,,,,,,,,,,,,,,,,,,,,,,,,,,,,,,,,,,/muse/elements/jaw_clench
2026-01-20 05:32:39.599,-0.12839624,-0.5364697,-0.23790056,0.046134494,0.54159236,0.254735,-0.6812315,0.6100512,1.1710111,0.8137094,-0.5387918,1.1882557,1.5046965,1.2451199,-0.011905011,1.5014565,1.5316087,1.2573335,0.21256442,1.5245509,716.1936,709.4671,697.16473,731.77075,752.4812,744.8697,770.89056,1264.6676,-0.38201904296875,-0.05120849609375,0.916748046875,0.231781005859375,2.893524169921875,-3.043060302734375,5.750127554061464,5.749089955415683,4.385044465107407,3.8857458932360585,0.0,0.0,0.0,0.0,0.0,0.0,0.0,0.0,0.0,0.0,0.0,0.0,67.83202,1,1.0,1.0,1.0,1.0,80.29
2026-01-20 05:32:40.000,,,,,,,,,,,,,,,,,,,,,,,,,,,,,,,,,,,,,,,,,,,,,,,,,,,,,,,,,,/muse/elements/blink
2026-01-20 05:32:40.083,,,,,,,,,,,,,,,,,,,,,,,,,,,,,,,,,,,,,,,,,,,,,,,,,,,,,,,,,,/muse/elements/jaw_clench
2026-01-20 05:32:40.347,,,,,,,,,,,,,,,,,,,,,,,,,,,,,,,,,,,,,,,,,,,,,,,,,,,,,,,,,,/muse/elements/jaw_clench
2026-01-20 05:32:40.581,,,,,,,,,,,,,,,,,,,,,,,,,,,,,,,,,,,,,,,,,,,,,,,,,,,,,,,,,,/muse/elements/jaw_clench
2026-01-20 05:32:40.604,-0.074305646,-0.5364697,-0.23790056,0.048569497,0.28740856,0.254735,-0.6812315,0.4426103,0.99943995,0.8137094,-0.5387918,0.9974933,1.4933059,1.2451199,-0.011905011,1.40672,1.5089332,1.2573335,0.21256442,1.4576612,733.0098,732.7443,735.134,721.06146,740.35583,742.0375,743.5421,1121.7299,-0.36956787109375,-0.04058837890625,0.95098876953125,0.650482177734375,-0.61309814453125,0.3289794921875,5.652288105285745,5.668462437117039,4.246067281787187,3.788120067710941,0.0,0.0,0.0,0.0,0.0,0.0,0.0,0.0,0.0,0.0,0.0,0.0,68.33104,1,1.0,1.0,1.0,1.0,80.29
2026-01-20 05:32:40.862,,,,,,,,,,,,,,,,,,,,,,,,,,,,,,,,,,,,,,,,,,,,,,,,,,,,,,,,,,/muse/elements/jaw_clench
2026-01-20 05:32:41.453,,,,,,,,,,,,,,,,,,,,,,,,,,,,,,,,,,,,,,,,,,,,,,,,,,,,,,,,,,/muse/elements/jaw_clench
2026-01-20 05:32:41.615,-0.13517293,-0.5364697,-0.23790056,0.048569497,0.2569226,0.254735,-0.6812315,0.4426103,1.1163166,0.8137094,-0.5387918,0.9974933,1.4156784,1.2451199,-0.011905011,1.40672,1.3692755,1.2573335,0.21256442,1.4576612,732.47876,734.77997,745.2237,729.46954,757.9686,754.5169,765.8457,1288.9183,-0.37237548828125,-0.03570556640625,0.947265625,0.082244873046875,-0.889739990234375,-0.246734619140625,5.7037407910736,5.711156569630212,4.319034880671388,3.840640869751806,0.0,0.0,0.0,0.0,0.0,0.0,0.0,0.0,0.0,0.0,0.0,0.0,71.59306,1,1.0,1.0,1.0,1.0,80.26
2026-01-20 05:32:41.860,,,,,,,,,,,,,,,,,,,,,,,,,,,,,,,,,,,,,,,,,,,,,,,,,,,,,,,,,,/muse/elements/jaw_clench
2026-01-20 05:32:42.624,-0.18450919,-0.5364697,-0.23790056,0.048569497,0.20536974,0.254735,-0.6812315,0.4426103,0.9804868,0.8137094,-0.5387918,0.9974933,1.346403,1.2451199,-0.011905011,1.40672,1.2988467,1.2573335,0.21256442,1.4576612,733.0098,737.6122,747.34784,728.58453,803.90344,797.531,788.76886,1389.6387,-0.37347412109375,-0.03375244140625,0.94573974609375,0.157012939453125,-0.246734619140625,0.007476806640625,5.760045776410843,5.76386047731445,4.39566459242305,3.9022864363540997,0.0,0.0,0.0,0.0,0.0,0.0,0.0,0.0,0.0,0.0,0.0,0.0,73.739975,1,1.0,1.0,1.0,1.0,80.26
2026-01-20 05:32:43.108,,,,,,,,,,,,,,,,,,,,,,,,,,,,,,,,,,,,,,,,,,,,,,,,,,,,,,,,,,/muse/elements/jaw_clench
2026-01-20 05:32:43.469,,,,,,,,,,,,,,,,,,,,,,,,,,,,,,,,,,,,,,,,,,,,,,,,,,,,,,,,,,/muse/elements/blink
2026-01-20 05:32:43.636,-0.18450919,-0.5364697,-0.23790056,0.048569497,0.20536974,0.254735,-0.6812315,0.4426103,0.9804868,0.8137094,-0.5387918,0.9974933,1.346403,1.2451199,-0.011905011,1.40672,1.2988467,1.2573335,0.21256442,1.4576612,735.93054,732.9213,724.2477,724.2477,752.1272,762.1284,760.0043,1206.3419,-0.36920166015625,-0.04095458984375,0.9459228515625,0.097198486328125,-0.58319091796875,-0.620574951171875,5.672490761271249,5.682134325155568,4.277561452447369,3.810367403380779,0.0,0.0,0.0,0.0,0.0,0.0,0.0,0.0,0.0,0.0,0.0,0.0,75.47698,1,1.0,1.0,1.0,1.0,80.26
2026-01-20 05:32:43.640,,,,,,,,,,,,,,,,,,,,,,,,,,,,,,,,,,,,,,,,,,,,,,,,,,,,,,,,,,/muse/elements/jaw_clench
2026-01-20 05:32:43.819,,,,,,,,,,,,,,,,,,,,,,,,,,,,,,,,,,,,,,,,,,,,,,,,,,,,,,,,,,/muse/elements/jaw_clench
2026-01-20 05:32:44.414,,,,,,,,,,,,,,,,,,,,,,,,,,,,,,,,,,,,,,,,,,,,,,,,,,,,,,,,,,/muse/elements/jaw_clench
2026-01-20 05:32:44.653,-0.21881908,-0.5364697,-0.23790056,-0.037913878,0.5489623,0.254735,-0.6812315,0.4193886,1.246906,0.8137094,-0.5387918,1.1685874,1.6685302,1.2451199,-0.011905011,1.5901996,1.6721869,1.2573335,0.21256442,1.619887,713.71545,702.56366,703.36017,707.6085,745.93176,754.8709,751.8617,1244.0457,-0.371826171875,-0.03271484375,0.94940185546875,0.485992431640625,0.0897216796875,0.418701171875,5.674474405741125,5.687413871206161,4.274753832582314,3.8100011920940324,0.0,0.0,0.0,0.0,0.0,0.0,0.0,0.0,0.0,0.0,0.0,0.0,76.22023,1,1.0,1.0,1.0,1.0,80.26
2026-01-20 05:32:44.703,,,,,,,,,,,,,,,,,,,,,,,,,,,,,,,,,,,,,,,,,,,,,,,,,,,,,,,,,,/muse/elements/jaw_clench
2026-01-20 05:32:44.868,,,,,,,,,,,,,,,,,,,,,,,,,,,,,,,,,,,,,,,,,,,,,,,,,,,,,,,,,,/muse/elements/jaw_clench
2026-01-20 05:32:45.482,,,,,,,,,,,,,,,,,,,,,,,,,,,,,,,,,,,,,,,,,,,,,,,,,,,,,,,,,,/muse/elements/blink
2026-01-20 05:32:45.662,-0.17023769,-0.23494993,-0.18605494,0.035689432,0.39921632,0.21905187,0.21949461,0.3959559,1.0862333,0.71909606,0.6666777,1.2281382,1.5318125,1.1541692,1.0947148,1.562672,1.5645175,1.2913638,1.2064035,1.6050829,735.93054,742.74554,744.9582,722.21204,800.7172,798.5931,799.0356,1450.0,-0.37451171875,-0.03985595703125,0.9478759765625,0.19439697265625,-0.441131591796875,-0.37384033203125,5.693700498295305,5.699895572562764,4.3049662637388835,3.8280370979662877,0.0,0.0,0.0,0.0,0.0,0.0,0.0,0.0,0.0,0.0,0.0,0.0,76.49212,1,1.0,1.0,1.0,1.0,80.26
2026-01-20 05:32:46.474,,,,,,,,,,,,,,,,,,,,,,,,,,,,,,,,,,,,,,,,,,,,,,,,,,,,,,,,,,/muse/elements/jaw_clench
2026-01-20 05:32:46.663,0.24078864,-0.20571998,-0.2414263,-0.23729219,0.41868246,0.2338302,0.22047696,0.040566824,1.1181349,0.71954423,0.53374106,0.77930945,1.4304576,1.2012643,1.0305706,0.8310906,1.5797817,1.356321,1.1732587,0.8885253,735.134,744.0731,747.08234,736.5501,757.43756,749.472,747.17084,1202.0936,-0.3780517578125,-0.03082275390625,0.94671630859375,-0.07476806640625,-0.575714111328125,-0.059814453125,5.672277138020647,5.670385046372457,4.277561452447369,3.801456262069952,0.0,0.0,0.0,0.0,0.0,0.0,0.0,0.0,0.0,0.0,0.0,0.0,76.431526,1,1.0,1.0,1.0,1.0,80.26
2026-01-20 05:32:46.725,,,,,,,,,,,,,,,,,,,,,,,,,,,,,,,,,,,,,,,,,,,,,,,,,,,,,,,,,,/muse/elements/jaw_clench
2026-01-20 05:32:46.960,,,,,,,,,,,,,,,,,,,,,,,,,,,,,,,,,,,,,,,,,,,,,,,,,,,,,,,,,,/muse/elements/blink
2026-01-20 05:32:47.478,,,,,,,,,,,,,,,,,,,,,,,,,,,,,,,,,,,,,,,,,,,,,,,,,,,,,,,,,,/muse/elements/jaw_clench
2026-01-20 05:32:47.596,,,,,,,,,,,,,,,,,,,,,,,,,,,,,,,,,,,,,,,,,,,,,,,,,,,,,,,,,,/muse/elements/jaw_clench
2026-01-20 05:32:47.675,0.34266073,-0.038798362,-0.3887363,0.058301687,0.3816717,-0.16058387,-0.5668687,-0.018817732,0.9914839,0.23831545,0.1710024,0.88907874,0.9322876,0.6066156,0.5142714,0.7423565,1.0503199,0.9105577,0.77277416,0.79689056,720.0879,709.4671,700.9705,710.3522,585.6467,584.93866,616.71246,653.00006,-0.374755859375,-0.0394287109375,0.94921875,0.28411865234375,-1.099090576171875,-0.28411865234375,5.635167727630355,5.646154066232745,4.226963259661922,3.769199151229049,0.0,0.0,0.0,0.0,0.0,0.0,0.0,0.0,0.0,0.0,0.0,0.0,75.99252,1,1.0,1.0,1.0,1.0,80.26
2026-01-20 05:32:48.607,,,,,,,,,,,,,,,,,,,,,,,,,,,,,,,,,,,,,,,,,,,,,,,,,,,,,,,,,,/muse/elements/jaw_clench
2026-01-20 05:32:48.685,0.29495993,0.03920281,-0.1960705,0.13947365,0.40725496,-0.08961998,-0.54758054,0.0036301177,0.90987664,0.22656572,0.16524751,0.9001399,0.9135681,0.6446856,0.558075,0.99067557,0.99875206,0.955039,0.83859396,0.99272174,736.01904,739.11676,746.72833,738.67426,731.4167,719.7339,704.24524,1356.4487,-0.3740234375,-0.035888671875,0.94854736328125,0.261688232421875,-0.127105712890625,0.31402587890625,5.630956297832773,5.6442619745845555,4.217807977493265,3.7623937248170134,0.0,0.0,0.0,0.0,0.0,0.0,0.0,0.0,0.0,0.0,0.0,0.0,74.945526,1,1.0,1.0,1.0,1.0,80.26
2026-01-20 05:32:49.687,0.20540944,0.03920281,-0.1960705,0.15420973,0.3699272,-0.08961998,-0.54758054,0.10690954,0.88673896,0.22656572,0.16524751,0.8250833,0.92062354,0.6446856,0.558075,1.1100198,0.98484993,0.955039,0.83859396,1.1244365,744.5157,740.5329,746.63983,738.3202,756.0215,749.56055,745.57776,1230.6812,-0.36859130859375,-0.040283203125,0.95379638671875,0.2691650390625,-0.112152099609375,0.31402587890625,5.640935555396609,5.649114274133944,4.228244999165534,3.766422048971223,0.0,0.0,0.0,0.0,0.0,0.0,0.0,0.0,0.0,0.0,0.0,0.0,74.23385,1,1.0,1.0,1.0,1.0,80.26
2026-01-20 05:32:49.985,,,,,,,,,,,,,,,,,,,,,,,,,,,,,,,,,,,,,,,,,,,,,,,,,,,,,,,,,,/muse/elements/jaw_clench
2026-01-20 05:32:50.582,,,,,,,,,,,,,,,,,,,,,,,,,,,,,,,,,,,,,,,,,,,,,,,,,,,,,,,,,,/muse/elements/jaw_clench
2026-01-20 05:32:50.700,0.20540944,0.03920281,-0.1960705,-0.23702125,0.3699272,-0.08961998,-0.54758054,-0.010228419,0.88673896,0.22656572,0.16524751,0.61038995,0.92062354,0.6446856,0.558075,1.2063028,0.98484993,0.955039,0.83859396,1.205424,745.1352,736.37305,743.8076,740.17883,647.33563,633.6172,627.0677,1081.8135,-0.37701416015625,-0.04412841796875,0.95245361328125,0.299072265625,-0.411224365234375,0.306549072265625,5.6871086951338725,5.68768852967122,4.2950785589967335,3.8147009036072763,0.0,0.0,0.0,0.0,0.0,0.0,0.0,0.0,0.0,0.0,0.0,0.0,73.3828,1,1.0,1.0,1.0,1.0,80.26
2026-01-20 05:32:50.733,,,,,,,,,,,,,,,,,,,,,,,,,,,,,,,,,,,,,,,,,,,,,,,,,,,,,,,,,,/muse/elements/jaw_clench
2026-01-20 05:32:51.216,,,,,,,,,,,,,,,,,,,,,,,,,,,,,,,,,,,,,,,,,,,,,,,,,,,,,,,,,,/muse/elements/blink
2026-01-20 05:32:51.710,0.20540944,0.03920281,-0.1960705,-0.2033686,0.3699272,-0.08961998,-0.54758054,-0.06320297,0.88673896,0.22656572,0.16524751,0.6884944,0.92062354,0.6446856,0.558075,1.1390676,0.98484993,0.955039,0.83859396,1.1375895,727.78796,725.13275,730.2661,724.3362,626.0056,616.80096,603.7905,1052.7833,-0.3765869140625,-0.0406494140625,0.94384765625,-0.052337646484375,-1.1065673828125,0.859832763671875,5.707433421548291,5.69971246691939,4.32379562739909,3.8278539923229142,0.0,0.0,0.0,0.0,0.0,0.0,0.0,0.0,0.0,0.0,0.0,0.0,71.86769,1,1.0,1.0,1.0,1.0,80.26
2026-01-20 05:32:51.863,,,,,,,,,,,,,,,,,,,,,,,,,,,,,,,,,,,,,,,,,,,,,,,,,,,,,,,,,,/muse/elements/jaw_clench
2026-01-20 05:32:52.082,,,,,,,,,,,,,,,,,,,,,,,,,,,,,,,,,,,,,,,,,,,,,,,,,,,,,,,,,,/muse/elements/blink
2026-01-20 05:32:52.360,,,,,,,,,,,,,,,,,,,,,,,,,,,,,,,,,,,,,,,,,,,,,,,,,,,,,,,,,,/muse/elements/jaw_clench
2026-01-20 05:32:52.724,0.20540944,0.03920281,-0.1960705,-0.20435654,0.3699272,-0.08961998,-0.54758054,-0.09986028,0.88673896,0.22656572,0.16524751,0.66775984,0.92062354,0.6446856,0.558075,1.0624036,0.98484993,0.955039,0.83859396,1.0609642,735.93054,736.46155,732.6558,731.2397,578.7432,563.52014,579.9823,893.8259,-0.37603759765625,-0.0391845703125,0.94879150390625,-0.059814453125,-0.874786376953125,-0.889739990234375,5.629308347042414,5.636815678420714,4.211887561690866,3.754306558901366,0.0,0.0,0.0,0.0,0.0,0.0,0.0,0.0,0.0,0.0,0.0,0.0,71.196495,1,1.0,1.0,1.0,1.0,80.26
2026-01-20 05:32:52.860,,,,,,,,,,,,,,,,,,,,,,,,,,,,,,,,,,,,,,,,,,,,,,,,,,,,,,,,,,/muse/elements/jaw_clench
2026-01-20 05:32:52.968,,,,,,,,,,,,,,,,,,,,,,,,,,,,,,,,,,,,,,,,,,,,,,,,,,,,,,,,,,/muse/elements/blink
2026-01-20 05:32:53.728,,,,,,,,,,,,,,,,,,,,,,,,,,,,,,,,,,,,,,,,,,,,,,,,,,,,,,,,,,/muse/elements/jaw_clench
2026-01-20 05:32:53.729,0.20540944,0.03920281,-0.1960705,-0.20435654,0.3699272,-0.08961998,-0.54758054,-0.09986028,0.88673896,0.22656572,0.16524751,0.66775984,0.92062354,0.6446856,0.558075,1.0624036,0.98484993,0.955039,0.83859396,1.0609642,733.45233,734.0719,734.0719,727.87646,561.30743,545.90735,573.1673,935.86646,-0.37469482421875,-0.03546142578125,0.94873046875,0.216827392578125,-0.13458251953125,0.650482177734375,5.640508308895406,5.653630880003814,4.229404668240231,3.7695043273013376,0.0,0.0,0.0,0.0,0.0,0.0,0.0,0.0,0.0,0.0,0.0,0.0,70.575806,1,2.0,1.0,1.0,2.0,80.23
2026-01-20 05:32:54.342,,,,,,,,,,,,,,,,,,,,,,,,,,,,,,,,,,,,,,,,,,,,,,,,,,,,,,,,,,/muse/elements/jaw_clench
2026-01-20 05:32:54.574,,,,,,,,,,,,,,,,,,,,,,,,,,,,,,,,,,,,,,,,,,,,,,,,,,,,,,,,,,/muse/elements/jaw_clench
2026-01-20 05:32:54.737,0.20540944,0.03920281,-0.1960705,0.15812911,0.3699272,-0.08961998,-0.54758054,-0.15392683,0.88673896,0.22656572,0.16524751,0.57590824,0.92062354,0.6446856,0.558075,0.86097366,0.98484993,0.955039,0.83859396,0.8453992,727.61096,730.9742,729.38104,718.22925,776.732,783.10443,781.3343,1434.8654,-0.37481689453125,-0.03436279296875,0.9425048828125,0.2392578125,-0.814971923828125,0.31402587890625,5.672673866914622,5.678533247502563,4.269901533032925,3.797672078773574,0.0,0.0,0.0,0.0,0.0,0.0,0.0,0.0,0.0,0.0,0.0,0.0,69.92553,1,1.0,1.0,1.0,1.0,80.23
2026-01-20 05:32:54.854,,,,,,,,,,,,,,,,,,,,,,,,,,,,,,,,,,,,,,,,,,,,,,,,,,,,,,,,,,/muse/elements/jaw_clench
2026-01-20 05:32:55.457,,,,,,,,,,,,,,,,,,,,,,,,,,,,,,,,,,,,,,,,,,,,,,,,,,,,,,,,,,/muse/elements/jaw_clench
2026-01-20 05:32:55.604,,,,,,,,,,,,,,,,,,,,,,,,,,,,,,,,,,,,,,,,,,,,,,,,,,,,,,,,,,/muse/elements/jaw_clench
2026-01-20 05:32:55.749,0.20540944,0.03920281,-0.1960705,0.11720487,0.3699272,-0.08961998,-0.54758054,-0.14800946,0.88673896,0.22656572,0.16524751,0.3757474,0.92062354,0.6446856,0.558075,0.6593997,0.98484993,0.955039,0.83859396,0.5985705,717.60974,717.78674,724.86725,718.6718,772.9262,782.39636,786.46765,1450.0,-0.37640380859375,-0.041259765625,0.94598388671875,0.43365478515625,-0.5084228515625,-0.127105712890625,5.695745177979639,5.699010561953127,4.302860548840092,3.8234594568819587,0.0,0.0,0.0,0.0,0.0,0.0,0.0,0.0,0.0,0.0,0.0,0.0,69.77866,1,1.0,1.0,1.0,1.0,80.23
2026-01-20 05:32:56.107,,,,,,,,,,,,,,,,,,,,,,,,,,,,,,,,,,,,,,,,,,,,,,,,,,,,,,,,,,/muse/elements/jaw_clench
2026-01-20 05:32:56.221,,,,,,,,,,,,,,,,,,,,,,,,,,,,,,,,,,,,,,,,,,,,,,,,,,,,,,,,,,/muse/elements/jaw_clench
2026-01-20 05:32:56.596,,,,,,,,,,,,,,,,,,,,,,,,,,,,,,,,,,,,,,,,,,,,,,,,,,,,,,,,,,/muse/elements/jaw_clench
2026-01-20 05:32:56.762,0.20540944,-0.19102642,-0.1960705,0.11720487,0.3699272,0.3819388,-0.54758054,-0.14800946,0.88673896,0.66807127,0.16524751,0.3757474,0.92062354,1.22963,0.558075,0.6593997,0.98484993,1.28358,0.83859396,0.5985705,736.19604,728.85004,726.7259,724.60175,505.37143,492.80353,538.3843,699.55444,-0.3782958984375,-0.037841796875,0.94500732421875,0.58319091796875,0.052337646484375,-0.276641845703125,5.700933171208545,5.694616026512171,4.311069785184656,3.8198888968361824,0.0,0.0,0.0,0.0,0.0,0.0,0.0,0.0,0.0,0.0,0.0,0.0,70.55973,1,1.0,1.0,1.0,1.0,80.23
2026-01-20 05:32:56.832,,,,,,,,,,,,,,,,,,,,,,,,,,,,,,,,,,,,,,,,,,,,,,,,,,,,,,,,,,/muse/elements/jaw_clench
2026-01-20 05:32:57.730,,,,,,,,,,,,,,,,,,,,,,,,,,,,,,,,,,,,,,,,,,,,,,,,,,,,,,,,,,/muse/elements/jaw_clench
2026-01-20 05:32:57.772,0.20540944,-0.3417325,-0.1960705,0.11720487,0.3699272,0.09413758,-0.54758054,-0.14800946,0.88673896,0.66807127,0.16524751,0.3757474,0.92062354,0.9554764,0.558075,0.6593997,0.98484993,1.0684354,0.83859396,0.5985705,715.9281,722.03503,724.0707,711.6798,530.59576,521.6566,578.8317,739.38226,-0.375244140625,-0.04425048828125,0.94952392578125,0.366363525390625,-0.560760498046875,-0.43365478515625,5.637609136208664,5.642552988579739,4.220707150180006,3.758640059127864,0.0,0.0,0.0,0.0,0.0,0.0,0.0,0.0,0.0,0.0,0.0,0.0,71.675064,1,2.0,1.0,1.0,2.0,80.23
2026-01-20 05:32:57.998,,,,,,,,,,,,,,,,,,,,,,,,,,,,,,,,,,,,,,,,,,,,,,,,,,,,,,,,,,/muse/elements/blink
2026-01-20 05:32:58.775,0.20540944,-0.41083774,-0.18194371,0.01815897,0.3699272,-0.6090835,0.11878945,0.6668786,0.88673896,-0.107739694,0.6682728,1.0509807,0.92062354,0.15196678,1.0812193,1.341105,0.98484993,0.5093836,1.0635538,1.3395574,704.7763,707.874,720.70746,701.1475,781.86536,787.0872,793.10565,1450.0,-0.37554931640625,-0.041015625,0.94500732421875,0.007476806640625,-0.0897216796875,0.31402587890625,5.638707770068903,5.647496840950814,4.222965453114941,3.7604100803471376,0.0,0.0,0.0,0.0,0.0,0.0,0.0,0.0,0.0,0.0,0.0,0.0,71.98808,1,1.0,1.0,1.0,1.0,80.21
2026-01-20 05:32:59.706,,,,,,,,,,,,,,,,,,,,,,,,,,,,,,,,,,,,,,,,,,,,,,,,,,,,,,,,,,/muse/elements/jaw_clench
2026-01-20 05:32:59.790,-0.047748312,-0.29555428,-0.048670452,-0.07688297,0.55571216,-0.59446245,0.1743407,0.5128224,0.9870164,-0.12440082,0.66455805,1.087885,1.3975099,0.13430601,1.1973456,1.3840886,1.3883699,0.33274165,1.1944938,1.4246547,709.2016,711.9453,717.60974,698.7579,773.7228,774.78485,771.51013,1450.0,-0.3756103515625,-0.03607177734375,0.9462890625,0.426177978515625,-0.4486083984375,0.545806884765625,5.639806403929142,5.644902844336361,4.21741124859929,3.755191569511003,0.0,0.0,0.0,0.0,0.0,0.0,0.0,0.0,0.0,0.0,0.0,0.0,71.88851,1,1.0,1.0,1.0,1.0,80.21
2026-01-20 05:32:59.854,,,,,,,,,,,,,,,,,,,,,,,,,,,,,,,,,,,,,,,,,,,,,,,,,,,,,,,,,,/muse/elements/blink
2026-01-20 05:33:00.469,,,,,,,,,,,,,,,,,,,,,,,,,,,,,,,,,,,,,,,,,,,,,,,,,,,,,,,,,,/muse/elements/jaw_clench
2026-01-20 05:33:00.565,,,,,,,,,,,,,,,,,,,,,,,,,,,,,,,,,,,,,,,,,,,,,,,,,,,,,,,,,,/muse/elements/blink
2026-01-20 05:33:00.605,,,,,,,,,,,,,,,,,,,,,,,,,,,,,,,,,,,,,,,,,,,,,,,,,,,,,,,,,,/muse/elements/jaw_clench
2026-01-20 05:33:00.802,0.15258226,-0.17067704,-0.20093389,0.06559561,0.6412302,0.3237899,-0.0427909,0.4617576,1.2881382,0.98437697,0.50742465,1.141295,1.524147,1.4922626,0.95476085,1.401048,1.5432609,1.5377436,0.9837763,1.4419386,709.82117,713.71545,721.85803,711.14874,780.4492,780.2722,788.68036,1437.6976,-0.3756103515625,-0.0439453125,0.94744873046875,0.246734619140625,-0.844879150390625,-0.2392578125,5.651860858784541,5.650914812960447,4.233799203681186,3.7628514889254463,0.0,0.0,0.0,0.0,0.0,0.0,0.0,0.0,0.0,0.0,0.0,0.0,72.026695,1,1.0,1.0,1.0,1.0,80.21
2026-01-20 05:33:00.953,,,,,,,,,,,,,,,,,,,,,,,,,,,,,,,,,,,,,,,,,,,,,,,,,,,,,,,,,,/muse/elements/jaw_clench
2026-01-20 05:33:01.818,0.3693649,-0.3016998,-0.5178478,0.33118758,0.65711933,0.26589423,-0.12658702,0.53897893,1.2726765,0.98593116,0.6122325,1.2000195,1.637972,1.3492986,1.048105,1.5976614,1.6561418,1.3978143,1.0690252,1.6025057,718.49475,721.94653,717.2557,706.90045,686.27844,691.8544,718.05225,1059.7754,-0.37225341796875,-0.04290771484375,0.94158935546875,0.575714111328125,-0.04486083984375,-0.01495361328125,5.680272751114608,5.676458050211001,4.27219035357509,3.7909887227904537,0.0,0.0,0.0,0.0,0.0,0.0,0.0,0.0,0.0,0.0,0.0,0.0,71.75587,1,1.0,1.0,1.0,1.0,80.21
2026-01-20 05:33:01.853,,,,,,,,,,,,,,,,,,,,,,,,,,,,,,,,,,,,,,,,,,,,,,,,,,,,,,,,,,/muse/elements/jaw_clench
2026-01-20 05:33:02.234,,,,,,,,,,,,,,,,,,,,,,,,,,,,,,,,,,,,,,,,,,,,,,,,,,,,,,,,,,/muse/elements/jaw_clench
2026-01-20 05:33:02.456,,,,,,,,,,,,,,,,,,,,,,,,,,,,,,,,,,,,,,,,,,,,,,,,,,,,,,,,,,/muse/elements/jaw_clench
2026-01-20 05:33:02.833,-0.0048468914,-0.40690914,-0.49115422,-0.038124457,0.41212404,0.30670458,-0.05504579,0.486188,0.8610306,0.90020066,0.6685688,0.9643177,1.4266564,1.3177886,1.1062701,1.438269,1.4495,1.3070661,1.1202928,1.4226629,721.504,711.6798,704.7763,715.7511,741.772,737.6122,746.37427,1326.2681,-0.37457275390625,-0.04449462890625,0.9483642578125,-0.052337646484375,-0.545806884765625,-0.112152099609375,5.616185775934006,5.6215263571990555,4.1785012993824955,3.723972057315881,0.0,0.0,0.0,0.0,0.0,0.0,0.0,0.0,0.0,0.0,0.0,0.0,70.86229,1,1.0,1.0,1.0,1.0,80.21
2026-01-20 05:33:03.099,,,,,,,,,,,,,,,,,,,,,,,,,,,,,,,,,,,,,,,,,,,,,,,,,,,,,,,,,,/muse/elements/jaw_clench
2026-01-20 05:33:03.234,,,,,,,,,,,,,,,,,,,,,,,,,,,,,,,,,,,,,,,,,,,,,,,,,,,,,,,,,,/muse/elements/jaw_clench
2026-01-20 05:33:03.696,,,,,,,,,,,,,,,,,,,,,,,,,,,,,,,,,,,,,,,,,,,,,,,,,,,,,,,,,,/muse/elements/jaw_clench
2026-01-20 05:33:03.847,0.12157819,-0.20615426,-0.39219105,-0.30040428,0.35278544,0.38897258,0.3432901,0.3713523,0.888604,0.82532907,0.5472236,1.0447382,1.4114659,1.3981931,1.2225927,1.3953569,1.4290752,1.4151124,1.2307086,1.3946025,706.63495,722.8316,733.8064,704.7763,773.2802,770.89056,780.4492,1402.472,-0.37322998046875,-0.04315185546875,0.94769287109375,0.16448974609375,0.01495361328125,-0.007476806640625,5.622869131917126,5.632085449300241,4.18854159216079,3.733035786662852,0.0,0.0,0.0,0.0,0.0,0.0,0.0,0.0,0.0,0.0,0.0,0.0,70.55914,1,1.0,1.0,1.0,1.0,80.21
2026-01-20 05:33:03.897,,,,,,,,,,,,,,,,,,,,,,,,,,,,,,,,,,,,,,,,,,,,,,,,,,,,,,,,,,/muse/elements/jaw_clench
2026-01-20 05:33:04.410,,,,,,,,,,,,,,,,,,,,,,,,,,,,,,,,,,,,,,,,,,,,,,,,,,,,,,,,,,/muse/elements/jaw_clench
2026-01-20 05:33:04.614,,,,,,,,,,,,,,,,,,,,,,,,,,,,,,,,,,,,,,,,,,,,,,,,,,,,,,,,,,/muse/elements/blink
2026-01-20 05:33:04.863,0.23361285,-0.22237708,-0.38289443,0.03142428,0.71641326,0.35290796,0.35449803,0.36667252,1.1376189,0.82100946,0.54613215,1.0693753,1.4375343,1.3675104,1.2340517,1.3718206,1.396224,1.3805605,1.2398719,1.3521279,726.9029,737.8777,740.09033,726.2833,760.80084,754.25134,726.3718,1225.9904,-0.37249755859375,-0.031982421875,0.94549560546875,0.07476806640625,-0.777587890625,0.007476806640625,5.660588894451994,5.66229788045681,4.23743079894142,3.766574637007367,0.0,0.0,0.0,0.0,0.0,0.0,0.0,0.0,0.0,0.0,0.0,0.0,71.16601,1,1.0,1.0,1.0,1.0,80.19
2026-01-20 05:33:05.325,,,,,,,,,,,,,,,,,,,,,,,,,,,,,,,,,,,,,,,,,,,,,,,,,,,,,,,,,,/muse/elements/blink
2026-01-20 05:33:05.362,,,,,,,,,,,,,,,,,,,,,,,,,,,,,,,,,,,,,,,,,,,,,,,,,,,,,,,,,,/muse/elements/jaw_clench
2026-01-20 05:33:05.701,,,,,,,,,,,,,,,,,,,,,,,,,,,,,,,,,,,,,,,,,,,,,,,,,,,,,,,,,,/muse/elements/jaw_clench
2026-01-20 05:33:05.872,0.43493146,-0.22237708,-0.38289443,0.1947756,0.90102184,0.35290796,0.35449803,0.5015567,1.0729487,0.82100946,0.54613215,1.0772336,1.4902068,1.3675104,1.2340517,1.4335803,1.4742888,1.3805605,1.2398719,1.494686,733.45233,730.7087,739.7363,724.3362,731.50525,748.4099,725.13275,1200.6775,-0.3765869140625,-0.04449462890625,0.9522705078125,-0.07476806640625,0.179443359375,-0.059814453125,5.717138020647068,5.713262284529003,4.311619102114775,3.8255041365662925,0.0,0.0,0.0,0.0,0.0,0.0,0.0,0.0,0.0,0.0,0.0,0.0,71.55939,1,1.0,1.0,1.0,1.0,80.19
2026-01-20 05:33:06.347,,,,,,,,,,,,,,,,,,,,,,,,,,,,,,,,,,,,,,,,,,,,,,,,,,,,,,,,,,/muse/elements/jaw_clench
2026-01-20 05:33:06.559,,,,,,,,,,,,,,,,,,,,,,,,,,,,,,,,,,,,,,,,,,,,,,,,,,,,,,,,,,/muse/elements/jaw_clench
2026-01-20 05:33:06.836,,,,,,,,,,,,,,,,,,,,,,,,,,,,,,,,,,,,,,,,,,,,,,,,,,,,,,,,,,/muse/elements/jaw_clench
2026-01-20 05:33:06.887,0.4345363,-0.22237708,-0.38289443,0.35709777,0.4561486,0.35290796,0.35449803,0.6257889,1.2037963,0.82100946,0.54613215,1.1537954,1.3656895,1.3675104,1.2340517,1.5222857,1.4516604,1.3805605,1.2398719,1.5443748,723.0086,732.12476,735.84204,717.78674,494.30814,484.83795,506.699,635.47577,-0.371826171875,-0.04248046875,0.94940185546875,0.022430419921875,-1.1065673828125,0.261688232421875,5.665654817251985,5.66391531363994,4.243198626707675,3.772861264096512,0.0,0.0,0.0,0.0,0.0,0.0,0.0,0.0,0.0,0.0,0.0,0.0,71.660965,1,1.0,1.0,1.0,1.0,80.19
2026-01-20 05:33:06.956,,,,,,,,,,,,,,,,,,,,,,,,,,,,,,,,,,,,,,,,,,,,,,,,,,,,,,,,,,/muse/elements/blink
2026-01-20 05:33:07.053,,,,,,,,,,,,,,,,,,,,,,,,,,,,,,,,,,,,,,,,,,,,,,,,,,,,,,,,,,/muse/elements/jaw_clench
2026-01-20 05:33:07.900,0.3953002,-0.22237708,-0.38289443,0.38153243,0.15657835,0.35290796,0.35449803,0.46652585,1.0087279,0.82100946,0.54613215,1.132257,1.2823306,1.3675104,1.2340517,1.5147479,1.3181083,1.3805605,1.2398719,1.5389345,708.5821,713.98096,729.29254,717.52124,762.8365,759.2962,726.0178,1247.94,-0.3729248046875,-0.04827880859375,0.94659423828125,-0.007476806640625,-0.0897216796875,0.157012939453125,5.647313735307441,5.659124049305009,4.215122428057125,3.760745774026655,0.0,0.0,0.0,0.0,0.0,0.0,0.0,0.0,0.0,0.0,0.0,0.0,72.345474,1,1.0,1.0,1.0,1.0,80.19
2026-01-20 05:33:08.095,,,,,,,,,,,,,,,,,,,,,,,,,,,,,,,,,,,,,,,,,,,,,,,,,,,,,,,,,,/muse/elements/jaw_clench
2026-01-20 05:33:08.467,,,,,,,,,,,,,,,,,,,,,,,,,,,,,,,,,,,,,,,,,,,,,,,,,,,,,,,,,,/muse/elements/blink
2026-01-20 05:33:08.576,,,,,,,,,,,,,,,,,,,,,,,,,,,,,,,,,,,,,,,,,,,,,,,,,,,,,,,,,,/muse/elements/jaw_clench
2026-01-20 05:33:08.826,,,,,,,,,,,,,,,,,,,,,,,,,,,,,,,,,,,,,,,,,,,,,,,,,,,,,,,,,,/muse/elements/jaw_clench
2026-01-20 05:33:08.917,0.008709421,-0.22237708,-0.38289443,-0.010941753,0.23508671,0.35290796,0.35449803,0.40648064,1.0224462,0.82100946,0.54613215,1.1724287,1.3073777,1.3675104,1.2340517,1.3846303,1.29284,1.3805605,1.2398719,1.4019209,730.1776,733.2753,730.6202,731.68225,782.5734,782.9274,774.96185,1412.7388,-0.37677001953125,-0.04449462890625,0.94427490234375,0.231781005859375,-0.11962890625,0.216827392578125,5.676671673461603,5.682683642085688,4.2557413632787355,3.7886999022482892,0.0,0.0,0.0,0.0,0.0,0.0,0.0,0.0,0.0,0.0,0.0,0.0,73.33602,1,1.0,1.0,1.0,1.0,80.19
2026-01-20 05:33:09.235,,,,,,,,,,,,,,,,,,,,,,,,,,,,,,,,,,,,,,,,,,,,,,,,,,,,,,,,,,/muse/elements/jaw_clench
2026-01-20 05:33:09.729,,,,,,,,,,,,,,,,,,,,,,,,,,,,,,,,,,,,,,,,,,,,,,,,,,,,,,,,,,/muse/elements/jaw_clench
2026-01-20 05:33:09.862,,,,,,,,,,,,,,,,,,,,,,,,,,,,,,,,,,,,,,,,,,,,,,,,,,,,,,,,,,/muse/elements/blink
2026-01-20 05:33:09.926,0.10277781,-0.22237708,-0.38289443,-0.11588878,0.32917553,0.35290796,0.35449803,0.41997346,0.675928,0.82100946,0.54613215,1.2156792,1.3002644,1.3675104,1.2340517,1.3432729,1.3408905,1.3805605,1.2398719,1.3822535,716.2821,721.504,726.8144,706.1039,528.11755,515.5497,543.7832,540.6855,-0.3763427734375,-0.047119140625,0.946044921875,0.11962890625,-0.478515625,-0.1495361328125,5.706823069403715,5.706456858116968,4.2970316858593804,3.816074195932575,0.0,0.0,0.0,0.0,0.0,0.0,0.0,0.0,0.0,0.0,0.0,0.0,73.41089,1,1.0,1.0,1.0,1.0,80.19
2026-01-20 05:33:10.824,,,,,,,,,,,,,,,,,,,,,,,,,,,,,,,,,,,,,,,,,,,,,,,,,,,,,,,,,,/muse/elements/jaw_clench
2026-01-20 05:33:10.936,0.33421913,-0.22237708,-0.38289443,0.13989922,0.6179159,0.35290796,0.35449803,0.49473056,1.3085673,0.82100946,0.54613215,1.1513519,1.4296678,1.3675104,1.2340517,1.1962706,1.5327685,1.3805605,1.2398719,1.3550626,736.7271,733.8064,732.6558,732.47876,771.33307,771.59863,749.295,1417.0757,-0.378173828125,-0.04718017578125,0.9429931640625,0.261688232421875,-0.40374755859375,0.4486083984375,5.7358147962711294,5.726415373244642,4.338383043654483,3.841129151467468,0.0,0.0,0.0,0.0,0.0,0.0,0.0,0.0,0.0,0.0,0.0,0.0,73.28527,1,1.0,1.0,1.0,1.0,80.18
2026-01-20 05:33:11.325,,,,,,,,,,,,,,,,,,,,,,,,,,,,,,,,,,,,,,,,,,,,,,,,,,,,,,,,,,/muse/elements/jaw_clench
2026-01-20 05:33:11.720,,,,,,,,,,,,,,,,,,,,,,,,,,,,,,,,,,,,,,,,,,,,,,,,,,,,,,,,,,/muse/elements/blink
2026-01-20 05:33:11.944,0.39198038,-0.22237708,-0.38289443,0.21369338,0.6461115,0.35290796,0.35449803,0.54815555,1.3047816,0.82100946,0.54613215,1.1501963,1.4371728,1.3675104,1.2340517,1.2434467,1.5341259,1.3805605,1.2398719,1.4070506,712.4763,705.1303,697.34174,707.43146,594.8514,585.91223,609.98596,668.8427,-0.379638671875,-0.044677734375,0.94403076171875,0.22430419921875,0.01495361328125,-0.022430419921875,5.642095224471307,5.649541520635148,4.208347519252318,3.7522923968242616,0.0,0.0,0.0,0.0,0.0,0.0,0.0,0.0,0.0,0.0,0.0,0.0,73.557785,1,1.0,1.0,1.0,1.0,80.18
2026-01-20 05:33:12.439,,,,,,,,,,,,,,,,,,,,,,,,,,,,,,,,,,,,,,,,,,,,,,,,,,,,,,,,,,/muse/elements/jaw_clench
2026-01-20 05:33:12.952,0.39198038,-0.22237708,-0.38289443,0.23630266,0.6461115,0.35290796,0.35449803,0.03802694,1.3047816,0.82100946,0.54613215,0.7349299,1.4371728,1.3675104,1.2340517,1.0094787,1.5341259,1.3805605,1.2398719,1.1264405,745.1352,744.7812,749.295,736.10754,759.0307,758.5882,749.0295,1296.5299,-0.3751220703125,-0.03515625,0.94854736328125,0.0299072265625,-0.2392578125,-0.34393310546875,5.662755644565244,5.662267362849581,4.232273323319744,3.764652027751949,0.0,0.0,0.0,0.0,0.0,0.0,0.0,0.0,0.0,0.0,0.0,0.0,74.28486,1,1.0,1.0,1.0,1.0,80.18
2026-01-20 05:33:12.977,,,,,,,,,,,,,,,,,,,,,,,,,,,,,,,,,,,,,,,,,,,,,,,,,,,,,,,,,,/muse/elements/jaw_clench
2026-01-20 05:33:13.492,,,,,,,,,,,,,,,,,,,,,,,,,,,,,,,,,,,,,,,,,,,,,,,,,,,,,,,,,,/muse/elements/jaw_clench
2026-01-20 05:33:13.964,0.08093126,-0.22237708,-0.3445859,0.23630266,0.3723252,0.35290796,-0.056525476,0.03802694,1.1818047,0.82100946,0.3764988,0.7349299,1.0659465,1.3675104,0.89638555,1.0094787,1.1444715,1.3805605,1.0951129,1.1264405,714.06946,711.41425,707.16595,703.44867,761.5089,763.456,751.2421,1254.8434,-0.37744140625,-0.0394287109375,0.94073486328125,-0.22430419921875,-0.426177978515625,0.2392578125,5.694188780010967,5.689092339603748,4.277378346803996,3.794803423694061,0.0,0.0,0.0,0.0,0.0,0.0,0.0,0.0,0.0,0.0,0.0,0.0,73.89766,1,1.0,1.0,1.0,1.0,80.18
2026-01-20 05:33:14.084,,,,,,,,,,,,,,,,,,,,,,,,,,,,,,,,,,,,,,,,,,,,,,,,,,,,,,,,,,/muse/elements/jaw_clench
2026-01-20 05:33:14.200,,,,,,,,,,,,,,,,,,,,,,,,,,,,,,,,,,,,,,,,,,,,,,,,,,,,,,,,,,/muse/elements/jaw_clench
2026-01-20 05:33:14.967,0.07871311,-0.17938438,-0.3606835,-0.30111933,0.418403,-0.2743085,-0.029785432,-0.005430322,1.1692629,0.315347,0.44174883,1.0188571,1.1044838,0.85022587,0.8343982,0.96982104,1.1083428,0.92740554,0.9610865,1.0259651,716.4591,717.2557,727.78796,719.4683,733.7179,737.4351,712.6534,1032.3384,-0.375244140625,-0.04571533203125,0.9412841796875,-0.059814453125,-0.94207763671875,0.82244873046875,5.681493455403762,5.667028109577283,4.262882483370288,3.777805116467587,0.0,0.0,0.0,0.0,0.0,0.0,0.0,0.0,0.0,0.0,0.0,0.0,72.72638,1,1.0,1.0,1.0,1.0,80.18
2026-01-20 05:33:15.333,,,,,,,,,,,,,,,,,,,,,,,,,,,,,,,,,,,,,,,,,,,,,,,,,,,,,,,,,,/muse/elements/jaw_clench
2026-01-20 05:33:15.575,,,,,,,,,,,,,,,,,,,,,,,,,,,,,,,,,,,,,,,,,,,,,,,,,,,,,,,,,,/muse/elements/jaw_clench
2026-01-20 05:33:15.964,,,,,,,,,,,,,,,,,,,,,,,,,,,,,,,,,,,,,,,,,,,,,,,,,,,,,,,,,,/muse/elements/jaw_clench
2026-01-20 05:33:15.978,-0.04200087,0.030929737,-0.44234085,-0.20657769,-0.05156379,-0.2658657,-0.5228577,0.090883985,0.864321,0.23179683,0.2610298,1.0863519,0.8152764,0.42537978,0.60776126,0.7004899,0.8796473,0.611948,0.68265694,0.80982083,724.69025,729.20404,735.0455,725.22125,761.5089,761.42035,758.49963,1221.1226,-0.37481689453125,-0.04949951171875,0.946044921875,-0.059814453125,-0.650482177734375,-0.142059326171875,5.628759030112295,5.630254392866509,4.188846768233078,3.731052142192976,0.0,0.0,0.0,0.0,0.0,0.0,0.0,0.0,0.0,0.0,0.0,0.0,72.532936,1,1.0,1.0,1.0,1.0,80.15
2026-01-20 05:33:16.809,,,,,,,,,,,,,,,,,,,,,,,,,,,,,,,,,,,,,,,,,,,,,,,,,,,,,,,,,,/muse/elements/jaw_clench
2026-01-20 05:33:16.989,0.0045943456,-0.22794865,-0.44280583,-0.28565478,-0.035276834,-0.2833096,-0.67311287,0.33021185,0.7586524,0.18973598,0.16609488,1.0603044,0.8700303,0.6610545,0.6525226,0.5012972,0.8954486,0.6870739,0.6745101,0.6457421,726.1948,718.40625,721.23846,733.45233,759.56177,748.8525,758.41113,1242.541,-0.378662109375,-0.0443115234375,0.94635009765625,0.426177978515625,0.2093505859375,0.261688232421875,5.644231456977327,5.6465507951267195,4.210422716543881,3.7482030374555944,0.0,0.0,0.0,0.0,0.0,0.0,0.0,0.0,0.0,0.0,0.0,0.0,73.00422,1,1.0,1.0,1.0,1.0,80.15
2026-01-20 05:33:17.210,,,,,,,,,,,,,,,,,,,,,,,,,,,,,,,,,,,,,,,,,,,,,,,,,,,,,,,,,,/muse/elements/blink
2026-01-20 05:33:17.298,,,,,,,,,,,,,,,,,,,,,,,,,,,,,,,,,,,,,,,,,,,,,,,,,,,,,,,,,,/muse/elements/jaw_clench
2026-01-20 05:33:17.974,,,,,,,,,,,,,,,,,,,,,,,,,,,,,,,,,,,,,,,,,,,,,,,,,,,,,,,,,,/muse/elements/jaw_clench
2026-01-20 05:33:17.998,0.121903725,-0.22794865,-0.32093444,-0.28565478,0.046569087,-0.2833096,-0.6438921,0.33021185,0.7335092,0.18973598,-0.010601093,1.0603044,0.90707684,0.6610545,0.3250044,0.5012972,0.88748205,0.6870739,0.41245577,0.6457421,729.46954,734.86847,738.3202,726.4603,785.2286,781.4228,747.34784,1200.5005,-0.37567138671875,-0.0494384765625,0.95526123046875,0.052337646484375,-0.37384033203125,-0.19439697265625,5.686437307774837,5.681798631476051,4.264774575018477,3.7858312471687765,0.0,0.0,0.0,0.0,0.0,0.0,0.0,0.0,0.0,0.0,0.0,0.0,72.616714,1,1.0,1.0,1.0,1.0,80.15
2026-01-20 05:33:18.110,,,,,,,,,,,,,,,,,,,,,,,,,,,,,,,,,,,,,,,,,,,,,,,,,,,,,,,,,,/muse/elements/blink
2026-01-20 05:33:18.807,,,,,,,,,,,,,,,,,,,,,,,,,,,,,,,,,,,,,,,,,,,,,,,,,,,,,,,,,,/muse/elements/jaw_clench
2026-01-20 05:33:19.003,0.121903725,-0.3734152,-0.1908258,-0.28565478,0.046569087,-0.39258534,-0.30701774,0.33021185,0.7335092,0.045523163,0.26194188,1.0603044,0.90707684,0.3919491,0.6106321,0.5012972,0.88748205,0.5354942,0.6222375,0.6457421,732.9213,741.595,748.8525,729.38104,780.4492,781.3343,753.01227,1223.6007,-0.37786865234375,-0.03826904296875,0.94659423828125,-0.13458251953125,-0.366363525390625,0.127105712890625,5.716985432610924,5.707860668049496,4.307194049066591,3.818698710154257,0.0,0.0,0.0,0.0,0.0,0.0,0.0,0.0,0.0,0.0,0.0,0.0,72.59831,1,2.0,1.0,1.0,2.0,80.15
2026-01-20 05:33:19.440,,,,,,,,,,,,,,,,,,,,,,,,,,,,,,,,,,,,,,,,,,,,,,,,,,,,,,,,,,/muse/elements/jaw_clench
2026-01-20 05:33:19.983,,,,,,,,,,,,,,,,,,,,,,,,,,,,,,,,,,,,,,,,,,,,,,,,,,,,,,,,,,/muse/elements/jaw_clench
2026-01-20 05:33:20.017,-0.30706513,-0.3244341,-0.2245951,-0.23620044,-0.12442231,-0.47107732,-0.2620228,0.07583124,0.734719,0.047778815,0.460187,0.8195516,0.85777754,0.44904634,0.55787903,0.89462817,0.77471495,0.5693205,0.58933026,0.79715675,737.3466,735.57654,740.6214,733.0983,782.13086,782.8389,772.6607,1335.7383,-0.3714599609375,-0.03997802734375,0.9473876953125,-0.082244873046875,-0.695343017578125,-0.61309814453125,5.719304770760318,5.701390935316978,4.314365686765372,3.815036597286794,0.0,0.0,0.0,0.0,0.0,0.0,0.0,0.0,0.0,0.0,0.0,0.0,72.85387,1,1.0,1.0,1.0,1.0,80.15
2026-01-20 05:33:20.835,,,,,,,,,,,,,,,,,,,,,,,,,,,,,,,,,,,,,,,,,,,,,,,,,,,,,,,,,,/muse/elements/jaw_clench
2026-01-20 05:33:21.018,-0.21195368,-0.19148451,-0.16952479,-0.02510692,0.1479095,-0.023960605,0.10028116,0.28826168,1.0523853,0.7203322,0.675458,1.1070935,1.2494406,1.2468642,0.9917321,1.2522863,1.2072153,1.2589585,0.9914374,1.2072167,726.3718,721.06146,719.4683,721.5925,501.38864,483.59885,520.77155,525.37384,-0.3702392578125,-0.04974365234375,0.94976806640625,0.321502685546875,-0.0897216796875,-0.2392578125,5.6634880671387355,5.663976348854398,4.23611854183058,3.7664830841856807,0.0,0.0,0.0,0.0,0.0,0.0,0.0,0.0,0.0,0.0,0.0,0.0,72.69353,1,1.0,1.0,1.0,1.0,80.15
2026-01-20 05:33:21.930,,,,,,,,,,,,,,,,,,,,,,,,,,,,,,,,,,,,,,,,,,,,,,,,,,,,,,,,,,/muse/elements/jaw_clench
2026-01-20 05:33:22.027,-0.049104255,-0.30965763,-0.48430562,0.05774257,0.14486103,-0.15081958,-0.44295073,0.06265419,1.042008,0.7530335,-0.25083756,1.0696379,1.0789828,1.0111393,0.2505011,1.0045646,1.1036431,1.0129354,0.30758348,0.9684438,703.09467,707.874,712.8304,701.6786,751.0651,741.0639,729.46954,1172.8865,-0.3699951171875,-0.0452880859375,0.9461669921875,0.112152099609375,-0.859832763671875,0.52337646484375,5.678441694680877,5.675634074815822,4.253422025129343,3.779269961614572,0.0,0.0,0.0,0.0,0.0,0.0,0.0,0.0,0.0,0.0,0.0,0.0,72.68307,1,1.0,1.0,1.0,1.0,80.13
2026-01-20 05:33:22.345,,,,,,,,,,,,,,,,,,,,,,,,,,,,,,,,,,,,,,,,,,,,,,,,,,,,,,,,,,/muse/elements/blink
2026-01-20 05:33:22.565,,,,,,,,,,,,,,,,,,,,,,,,,,,,,,,,,,,,,,,,,,,,,,,,,,,,,,,,,,/muse/elements/jaw_clench
2026-01-20 05:33:23.035,-0.09590253,-0.31938276,-0.48730245,-0.32597315,0.02700465,-0.17184743,-0.23849927,-0.11898445,1.0177509,0.79131836,0.7785084,0.9044355,1.2862009,1.1383204,1.0962266,1.2086052,1.1891154,1.0708404,1.0616385,1.1786554,711.5913,711.7683,717.69824,707.6085,756.0215,751.5077,758.49963,1289.0955,-0.37646484375,-0.05084228515625,0.94769287109375,0.231781005859375,-0.037384033203125,-0.07476806640625,5.684056934410986,5.678563765109792,4.262485754476313,3.784274849200105,0.0,0.0,0.0,0.0,0.0,0.0,0.0,0.0,0.0,0.0,0.0,0.0,73.173035,1,1.0,1.0,1.0,1.0,80.13
2026-01-20 05:33:23.178,,,,,,,,,,,,,,,,,,,,,,,,,,,,,,,,,,,,,,,,,,,,,,,,,,,,,,,,,,/muse/elements/jaw_clench
2026-01-20 05:33:23.210,,,,,,,,,,,,,,,,,,,,,,,,,,,,,,,,,,,,,,,,,,,,,,,,,,,,,,,,,,/muse/elements/blink
2026-01-20 05:33:23.330,,,,,,,,,,,,,,,,,,,,,,,,,,,,,,,,,,,,,,,,,,,,,,,,,,,,,,,,,,/muse/elements/jaw_clench
2026-01-20 05:33:23.842,,,,,,,,,,,,,,,,,,,,,,,,,,,,,,,,,,,,,,,,,,,,,,,,,,,,,,,,,,/muse/elements/jaw_clench
