TimeStamp,Delta_TP9,Delta_AF7,Delta_AF8,Delta_TP10,Theta_TP9,Theta_AF7,Theta_AF8,Theta_TP10,Alpha_TP9,Alpha_AF7,Alpha_AF8,Alpha_TP10,Beta_TP9,Beta_AF7,Beta_AF8,Beta_TP10,Gamma_TP9,Gamma_AF7,Gamma_AF8,Gamma_TP10,RAW_TP9,RAW_AF7,RAW_AF8,RAW_TP10,AUX_1,AUX_2,AUX_3,AUX_4,Accelerometer_X,Accelerometer_Y,Accelerometer_Z,Gyro_X,Gyro_Y,Gyro_Z,Optics1,Optics2,Optics3,Optics4,Optics5,Optics6,Optics7,Optics8,Optics9,Optics10,Optics11,Optics12,Optics13,Optics14,Optics15,Optics16,Heart_Rate,HeadBandOn,HSI_TP9,HSI_AF7,HSI_AF8,HSI_TP10,Battery,Elements
2026-01-14 05:30:20.822,,,,,,,,,,,,,,,,,,,,,,,,,,,,,,,,,,,,,,,,,,,,,,,,,,,,,,,,,,/muse/event/connected MuseS-0465
2026-01-14 05:30:20.826,,,,,,,,,,,,,,,,,,,,,,,,,,,,,,,,,,,,,,,,,,,,,,,,,,,,,,,,,,/muse/elements/blink
2026-01-14 05:30:20.828,0.0,0.0,0.0,0.0,0.0,0.0,0.0,0.0,0.0,0.0,0.0,0.0,0.0,0.0,0.0,0.0,0.0,0.0,0.0,0.0,733.7179,749.295,733.36383,721.681,540.951,520.68304,554.581,548.297,-0.0078125,-0.016357421875,1.02044677734375,0.22430419921875,-0.456085205078125,0.261688232421875,6.139440669480009,6.07739837398374,4.756413227475384,4.206638533247503,0.0,0.0,0.0,0.0,0.0,0.0,0.0,0.0,0.0,0.0,0.0,0.0,65.05885,1,2.0,4.0,4.0,2.0,74.30
2026-01-14 05:30:21.054,,,,,,,,,,,,,,,,,,,,,,,,,,,,,,,,,,,,,,,,,,,,,,,,,,,,,,,,,,/muse/elements/blink
2026-01-14 05:30:21.835,0.0,0.0,0.0,0.0,0.0,0.0,0.0,0.0,0.0,0.0,0.0,0.0,0.0,0.0,0.0,0.0,0.0,0.0,0.0,0.0,767.79285,782.30786,768.6779,751.7732,743.5421,732.8328,719.2913,1322.1968,-0.01458740234375,-0.021728515625,1.0230712890625,0.299072265625,0.186920166015625,0.889739990234375,6.171148463390792,6.125585675798107,4.802983096106621,4.274051927616051,0.0,0.0,0.0,0.0,0.0,0.0,0.0,0.0,0.0,0.0,0.0,0.0,63.956787,1,2.0,1.0,1.0,2.0,74.30
2026-01-14 05:30:22.434,,,,,,,,,,,,,,,,,,,,,,,,,,,,,,,,,,,,,,,,,,,,,,,,,,,,,,,,,,/muse/elements/blink
2026-01-14 05:30:22.666,,,,,,,,,,,,,,,,,,,,,,,,,,,,,,,,,,,,,,,,,,,,,,,,,,,,,,,,,,/muse/elements/jaw_clench
2026-01-14 05:30:22.848,0.0,0.0,0.0,0.0,0.0,0.0,0.0,0.0,0.0,0.0,0.0,0.0,0.0,0.0,0.0,0.0,0.0,0.0,0.0,0.0,757.26056,773.9883,778.85614,746.81683,738.58575,753.2778,744.8697,1281.0414,-0.06640625,-0.01953125,1.06280517578125,-10.3778076171875,-1.18133544921875,0.2093505859375,6.193487351882316,6.152563240588417,4.8333481152993345,4.313663781799108,0.0,0.0,0.0,0.0,0.0,0.0,0.0,0.0,0.0,0.0,0.0,0.0,63.031178,1,2.0,1.0,1.0,2.0,74.30
2026-01-14 05:30:23.516,,,,,,,,,,,,,,,,,,,,,,,,,,,,,,,,,,,,,,,,,,,,,,,,,,,,,,,,,,/muse/elements/blink
2026-01-14 05:30:23.779,,,,,,,,,,,,,,,,,,,,,,,,,,,,,,,,,,,,,,,,,,,,,,,,,,,,,,,,,,/muse/elements/blink
2026-01-14 05:30:23.877,0.0,0.0,0.0,0.0,0.0,0.0,0.0,0.0,0.0,0.0,0.0,0.0,0.0,0.0,0.0,0.0,0.0,0.0,0.0,0.0,756.64105,716.9902,724.69025,764.6066,725.9293,727.96497,723.0971,1002.7773,-0.22430419921875,0.1207275390625,0.97735595703125,4.605712890625,21.914520263671875,-1.562652587890625,6.118108862027037,6.036565815511527,4.735783324988675,4.1652871754523995,0.0,0.0,0.0,0.0,0.0,0.0,0.0,0.0,0.0,0.0,0.0,0.0,63.28405,1,2.0,1.0,1.0,2.0,74.30
2026-01-14 05:30:24.519,,,,,,,,,,,,,,,,,,,,,,,,,,,,,,,,,,,,,,,,,,,,,,,,,,,,,,,,,,/muse/elements/blink
2026-01-14 05:30:24.785,,,,,,,,,,,,,,,,,,,,,,,,,,,,,,,,,,,,,,,,,,,,,,,,,,,,,,,,,,/muse/elements/blink
2026-01-14 05:30:24.884,0.0,0.0,0.0,0.0,0.0,0.0,0.0,0.0,0.0,0.0,0.0,0.0,0.0,0.0,0.0,0.0,0.0,0.0,0.0,0.0,766.8193,732.30176,778.67914,749.2065,746.81683,748.4099,745.0467,1303.6105,-0.50732421875,-0.11236572265625,0.8546142578125,-2.071075439453125,6.4300537109375,2.145843505859375,6.092596142383711,6.015722289774217,4.692997639653816,4.141330853777746,0.0,0.0,0.0,0.0,0.0,0.0,0.0,0.0,0.0,0.0,0.0,0.0,64.07337,1,2.0,1.0,1.0,2.0,74.30
2026-01-14 05:30:25.522,,,,,,,,,,,,,,,,,,,,,,,,,,,,,,,,,,,,,,,,,,,,,,,,,,,,,,,,,,/muse/elements/blink
2026-01-14 05:30:25.788,,,,,,,,,,,,,,,,,,,,,,,,,,,,,,,,,,,,,,,,,,,,,,,,,,,,,,,,,,/muse/elements/blink
2026-01-14 05:30:25.886,0.0,0.0,0.0,0.0,0.0,0.0,0.0,0.0,0.0,0.0,0.0,0.0,0.0,0.0,0.0,0.0,0.0,0.0,0.0,0.0,723.4511,699.64294,764.5181,720.4419,521.21405,512.8945,530.86127,803.3724,-0.43292236328125,0.01214599609375,0.9085693359375,-5.263671875,1.472930908203125,4.77020263671875,6.15384498009203,6.079076842381327,4.777378823641609,4.225895143408912,0.0,0.0,0.0,0.0,0.0,0.0,0.0,0.0,0.0,0.0,0.0,0.0,64.321434,1,2.0,1.0,1.0,2.0,74.30
2026-01-14 05:30:26.666,,,,,,,,,,,,,,,,,,,,,,,,,,,,,,,,,,,,,,,,,,,,,,,,,,,,,,,,,,/muse/elements/jaw_clench
2026-01-14 05:30:26.893,0.0,0.0,0.0,0.0,0.0,0.0,0.0,0.0,0.0,0.0,0.0,0.0,0.0,0.0,0.0,0.0,0.0,0.0,0.0,0.0,759.7388,682.7382,741.772,760.88934,774.78485,784.432,754.9594,1228.2915,-0.4619140625,-0.05389404296875,0.898193359375,1.0467529296875,-0.231781005859375,-3.48419189453125,6.246465918031614,6.216070381231671,4.903416541496793,4.407932670529052,0.0,0.0,0.0,0.0,0.0,0.0,0.0,0.0,0.0,0.0,0.0,0.0,68.58479,1,2.0,1.0,1.0,2.0,74.30
2026-01-14 05:30:27.795,,,,,,,,,,,,,,,,,,,,,,,,,,,,,,,,,,,,,,,,,,,,,,,,,,,,,,,,,,/muse/elements/blink
2026-01-14 05:30:27.894,0.0,0.0,0.0,0.0,0.0,0.0,0.0,0.0,0.0,0.0,0.0,0.0,0.0,0.0,0.0,0.0,0.0,0.0,0.0,0.0,739.8248,729.6466,743.9846,746.37427,780.8033,772.9262,763.0135,1408.6675,-0.4727783203125,-0.02215576171875,0.93048095703125,-0.650482177734375,-1.637420654296875,-0.07476806640625,6.2336790406027225,6.174078153684762,4.884465107407673,4.355198245237585,0.0,0.0,0.0,0.0,0.0,0.0,0.0,0.0,0.0,0.0,0.0,0.0,71.95368,1,2.0,1.0,1.0,2.0,74.30
2026-01-14 05:30:28.174,,,,,,,,,,,,,,,,,,,,,,,,,,,,,,,,,,,,,,,,,,,,,,,,,,,,,,,,,,/muse/elements/jaw_clench
2026-01-14 05:30:28.906,0.0,0.0,0.0,0.0,0.0,0.0,0.0,0.0,0.0,0.0,0.0,0.0,0.0,0.0,0.0,0.0,0.0,0.0,0.0,0.0,762.571,770.53656,763.102,748.0559,794.0792,793.01715,793.19415,1450.0,-0.47918701171875,-0.04278564453125,0.8974609375,-1.562652587890625,0.777587890625,-0.37384033203125,6.154058603342632,6.063421309872923,4.773503087523544,4.216648308418568,0.0,0.0,0.0,0.0,0.0,0.0,0.0,0.0,0.0,0.0,0.0,0.0,73.24739,1,2.0,1.0,1.0,2.0,74.30
2026-01-14 05:30:29.004,,,,,,,,,,,,,,,,,,,,,,,,,,,,,,,,,,,,,,,,,,,,,,,,,,,,,,,,,,/muse/elements/blink
2026-01-14 05:30:29.556,,,,,,,,,,,,,,,,,,,,,,,,,,,,,,,,,,,,,,,,,,,,,,,,,,,,,,,,,,/muse/elements/jaw_clench
2026-01-14 05:30:29.919,0.0,0.0,0.0,0.23604901,0.0,0.0,0.0,0.18057694,0.0,0.0,0.0,0.270257,0.0,0.0,0.0,0.8648083,0.0,0.0,0.0,0.83253896,710.88324,701.5901,708.6706,702.1211,746.55133,747.9674,756.55255,1277.8551,-0.4627685546875,-0.0364990234375,0.9085693359375,-0.299072265625,-2.99072265625,-3.768310546875,6.247900245571371,6.200201225472665,4.907170207185943,4.398167036215817,0.0,0.0,0.0,0.0,0.0,0.0,0.0,0.0,0.0,0.0,0.0,0.0,74.12592,1,1.0,1.0,1.0,1.0,74.30
2026-01-14 05:30:30.055,,,,,,,,,,,,,,,,,,,,,,,,,,,,,,,,,,,,,,,,,,,,,,,,,,,,,,,,,,/muse/elements/jaw_clench
2026-01-14 05:30:30.936,-0.05338611,0.0,0.0,-0.3599758,0.59570694,0.0,0.0,0.37695485,1.147939,0.0,0.0,0.95707804,1.6423386,0.0,0.0,1.4693321,1.656463,0.0,0.0,1.529467,758.1456,769.74,762.925,753.1893,740.00183,732.21326,726.6374,1114.8263,-0.4422607421875,-0.0438232421875,0.911865234375,0.67291259765625,-1.55517578125,1.77947998046875,6.212377750756979,6.112829315976445,4.860813961805307,4.2901347066256585,0.0,0.0,0.0,0.0,0.0,0.0,0.0,0.0,0.0,0.0,0.0,0.0,75.053986,1,1.0,1.0,1.0,1.0,74.30
2026-01-14 05:30:31.638,,,,,,,,,,,,,,,,,,,,,,,,,,,,,,,,,,,,,,,,,,,,,,,,,,,,,,,,,,/muse/elements/blink
2026-01-14 05:30:31.948,0.12124952,0.0,0.0,-0.42402482,0.5675579,0.0,0.0,0.3409612,1.3043387,0.0,0.0,0.8579854,1.70091,0.0,0.0,1.4535149,1.7014748,0.0,0.0,1.5086107,737.9662,754.16284,742.56854,737.6122,679.729,673.268,647.33563,1202.7131,-0.44183349609375,-0.04278564453125,0.914794921875,0.418701171875,0.49346923828125,0.777587890625,6.141027585055909,6.030981093388647,4.753453019574184,4.183841880647545,0.0,0.0,0.0,0.0,0.0,0.0,0.0,0.0,0.0,0.0,0.0,0.0,75.74689,1,1.0,1.0,1.0,1.0,74.29
2026-01-14 05:30:32.650,,,,,,,,,,,,,,,,,,,,,,,,,,,,,,,,,,,,,,,,,,,,,,,,,,,,,,,,,,/muse/elements/blink
2026-01-14 05:30:32.956,0.031101879,0.0,0.0,-0.42402482,0.43833187,0.0,0.0,0.3409612,1.3228502,0.0,0.0,0.8579854,1.7512274,0.0,0.0,1.4535149,1.762604,0.0,0.0,1.5086107,734.3374,690.7923,730.0006,733.0098,618.8366,605.4721,604.23303,1018.17737,-0.4407958984375,-0.04168701171875,0.92047119140625,0.37384033203125,-1.1962890625,0.07476806640625,6.203405574231695,6.112371551868011,4.8471115561595495,4.290073671411201,0.0,0.0,0.0,0.0,0.0,0.0,0.0,0.0,0.0,0.0,0.0,0.0,76.58693,1,1.0,1.0,1.0,1.0,74.29
2026-01-14 05:30:33.284,,,,,,,,,,,,,,,,,,,,,,,,,,,,,,,,,,,,,,,,,,,,,,,,,,,,,,,,,,/muse/elements/blink
2026-01-14 05:30:33.666,,,,,,,,,,,,,,,,,,,,,,,,,,,,,,,,,,,,,,,,,,,,,,,,,,,,,,,,,,/muse/elements/blink
2026-01-14 05:30:33.933,,,,,,,,,,,,,,,,,,,,,,,,,,,,,,,,,,,,,,,,,,,,,,,,,,,,,,,,,,/muse/elements/jaw_clench
2026-01-14 05:30:33.964,-0.0880334,0.0,0.0,-0.006860382,0.6048287,0.0,0.0,0.75656515,1.0104278,0.0,0.0,1.0852622,1.639927,0.0,0.0,1.6702514,1.6839263,0.0,0.0,1.7418956,741.6835,742.0375,745.2237,726.3718,754.5169,761.15485,746.28577,1208.2891,-0.43597412109375,-0.0380859375,0.9193115234375,0.127105712890625,-0.2392578125,-0.79254150390625,6.253362897265336,6.186468302219679,4.918980521183511,4.391300574589324,0.0,0.0,0.0,0.0,0.0,0.0,0.0,0.0,0.0,0.0,0.0,0.0,76.51778,1,1.0,1.0,1.0,1.0,74.29
2026-01-14 05:30:34.292,,,,,,,,,,,,,,,,,,,,,,,,,,,,,,,,,,,,,,,,,,,,,,,,,,,,,,,,,,/muse/elements/blink
2026-01-14 05:30:34.974,0.07341718,0.0,0.0,-0.02526565,0.61764205,0.0,0.0,0.7119701,1.2113886,0.0,0.0,1.2171321,1.6967053,0.0,0.0,1.700167,1.7381877,0.0,0.0,1.7600868,750.9766,758.7652,754.7824,741.3294,776.0239,774.96185,746.28577,1208.4661,-0.4373779296875,-0.0452880859375,0.9217529296875,0.10467529296875,-0.844879150390625,-0.299072265625,6.26795031352073,6.209203919605178,4.941685620961781,4.423038886107336,0.0,0.0,0.0,0.0,0.0,0.0,0.0,0.0,0.0,0.0,0.0,0.0,74.60174,1,1.0,1.0,1.0,1.0,74.29
2026-01-14 05:30:35.426,,,,,,,,,,,,,,,,,,,,,,,,,,,,,,,,,,,,,,,,,,,,,,,,,,,,,,,,,,/muse/elements/blink
2026-01-14 05:30:35.426,,,,,,,,,,,,,,,,,,,,,,,,,,,,,,,,,,,,,,,,,,,,,,,,,,,,,,,,,,/muse/elements/jaw_clench
2026-01-14 05:30:35.982,0.08388996,0.0,0.0,-0.05146441,0.54135996,0.0,0.0,0.60573334,1.18431,0.0,0.0,1.1953727,1.7179546,0.0,0.0,1.7428315,1.753048,0.0,0.0,1.7988244,760.0043,762.3939,753.89734,741.8605,763.0135,763.0135,773.2802,1309.3634,-0.4365234375,-0.04449462890625,0.91900634765625,0.127105712890625,-0.515899658203125,0.46356201171875,6.288976944901414,6.2375547767207875,4.968663185752092,4.462467634647021,0.0,0.0,0.0,0.0,0.0,0.0,0.0,0.0,0.0,0.0,0.0,0.0,71.760284,1,1.0,1.0,1.0,1.0,74.29
2026-01-14 05:30:36.048,,,,,,,,,,,,,,,,,,,,,,,,,,,,,,,,,,,,,,,,,,,,,,,,,,,,,,,,,,/muse/elements/blink
2026-01-14 05:30:36.423,,,,,,,,,,,,,,,,,,,,,,,,,,,,,,,,,,,,,,,,,,,,,,,,,,,,,,,,,,/muse/elements/blink
2026-01-14 05:30:36.985,-0.032648485,0.0,0.0,-0.13180922,0.40474036,0.0,0.0,0.3711177,1.1427661,0.0,0.0,1.1324948,1.7061143,0.0,0.0,1.7264541,1.7388295,0.0,0.0,1.7850702,759.2077,771.51013,759.9158,745.66626,763.81006,764.25256,758.9422,1216.2546,-0.42962646484375,-0.037353515625,0.921142578125,0.007476806640625,-1.31591796875,-0.276641845703125,6.1299802112390624,6.003026965167012,4.74475550151396,4.16153350976325,0.0,0.0,0.0,0.0,0.0,0.0,0.0,0.0,0.0,0.0,0.0,0.0,69.95439,1,1.0,1.0,1.0,1.0,74.29
2026-01-14 05:30:37.921,,,,,,,,,,,,,,,,,,,,,,,,,,,,,,,,,,,,,,,,,,,,,,,,,,,,,,,,,,/muse/elements/blink
2026-01-14 05:30:37.993,0.008424898,0.0,0.0,-0.13180922,0.42526332,0.0,0.0,0.3711177,1.0222375,0.0,0.0,1.1324948,1.5566064,0.0,0.0,1.7264541,1.6299107,0.0,0.0,1.7850702,698.8464,683.9773,694.421,691.76587,760.1813,764.6066,766.4652,1306.0886,-0.43304443359375,-0.0489501953125,0.92620849609375,0.11962890625,-0.321502685546875,-0.16448974609375,6.12042820017643,5.989110936270653,4.729893426793505,4.1427041461030445,0.0,0.0,0.0,0.0,0.0,0.0,0.0,0.0,0.0,0.0,0.0,0.0,70.18291,1,1.0,1.0,1.0,1.0,74.28
2026-01-14 05:30:38.229,,,,,,,,,,,,,,,,,,,,,,,,,,,,,,,,,,,,,,,,,,,,,,,,,,,,,,,,,,/muse/elements/blink
2026-01-14 05:30:38.405,,,,,,,,,,,,,,,,,,,,,,,,,,,,,,,,,,,,,,,,,,,,,,,,,,,,,,,,,,/muse/elements/blink
2026-01-14 05:30:38.651,,,,,,,,,,,,,,,,,,,,,,,,,,,,,,,,,,,,,,,,,,,,,,,,,,,,,,,,,,/muse/elements/blink
2026-01-14 05:30:38.996,0.008424898,0.0,0.0,-0.13180922,0.42526332,0.0,0.0,0.3711177,1.0222375,0.0,0.0,1.1324948,1.5566064,0.0,0.0,1.7264541,1.6299107,0.0,0.0,1.7850702,755.8445,766.6423,761.5089,743.18805,783.36993,776.6435,759.8273,1362.2017,-0.43145751953125,-0.04840087890625,0.92510986328125,0.3289794921875,-0.291595458984375,-0.5084228515625,6.12604343990654,5.995275492930882,4.741886846434447,4.1518594282717025,0.0,0.0,0.0,0.0,0.0,0.0,0.0,0.0,0.0,0.0,0.0,0.0,69.50345,1,1.0,1.0,1.0,1.0,74.28
2026-01-14 05:30:39.019,,,,,,,,,,,,,,,,,,,,,,,,,,,,,,,,,,,,,,,,,,,,,,,,,,,,,,,,,,/muse/elements/jaw_clench
2026-01-14 05:30:39.283,,,,,,,,,,,,,,,,,,,,,,,,,,,,,,,,,,,,,,,,,,,,,,,,,,,,,,,,,,/muse/elements/blink
2026-01-14 05:30:39.798,,,,,,,,,,,,,,,,,,,,,,,,,,,,,,,,,,,,,,,,,,,,,,,,,,,,,,,,,,/muse/elements/blink
2026-01-14 05:30:39.997,0.008424898,0.0,0.0,-0.13180922,0.42526332,0.0,0.0,0.3711177,1.0222375,0.0,0.0,1.1324948,1.5566064,0.0,0.0,1.7264541,1.6299107,0.0,0.0,1.7850702,751.2421,765.04913,757.9686,743.8076,753.3663,753.63184,753.4548,1219.8834,-0.43707275390625,-0.03973388671875,0.91754150390625,0.16448974609375,0.216827392578125,-0.097198486328125,6.123327372863171,5.997594831080276,4.736088501060964,4.15298857973917,0.0,0.0,0.0,0.0,0.0,0.0,0.0,0.0,0.0,0.0,0.0,0.0,66.55795,1,2.0,1.0,1.0,2.0,74.28
2026-01-14 05:30:41.011,-0.3510709,0.0,0.0,-0.13180922,-0.1259974,0.0,0.0,0.3711177,0.6961757,0.0,0.0,1.1324948,1.0720654,0.0,0.0,1.7264541,1.1782309,0.0,0.0,1.7850702,750.00305,754.25134,753.01227,746.63983,759.0307,753.3663,761.5974,1276.616,-0.42926025390625,-0.04339599609375,0.9251708984375,0.11962890625,-0.3289794921875,0.321502685546875,6.109960660896932,5.97501180173092,4.718754500154972,4.128025177025964,0.0,0.0,0.0,0.0,0.0,0.0,0.0,0.0,0.0,0.0,0.0,0.0,63.84794,1,1.0,1.0,1.0,1.0,74.28
2026-01-14 05:30:41.678,,,,,,,,,,,,,,,,,,,,,,,,,,,,,,,,,,,,,,,,,,,,,,,,,,,,,,,,,,/muse/elements/jaw_clench
2026-01-14 05:30:41.777,,,,,,,,,,,,,,,,,,,,,,,,,,,,,,,,,,,,,,,,,,,,,,,,,,,,,,,,,,/muse/elements/blink
2026-01-14 05:30:42.023,-0.09676901,0.0,0.0,-0.13180922,-0.10879187,0.0,0.0,0.3711177,0.52339506,0.0,0.0,1.1324948,0.99100745,0.0,0.0,1.7264541,1.16807,0.0,0.0,1.7850702,751.6847,751.9502,744.6927,744.0731,639.9011,630.3424,628.7493,1085.1768,-0.42803955078125,-0.04296875,0.9267578125,-0.112152099609375,-0.052337646484375,1.09161376953125,6.111791717330663,5.9731807452971895,4.720707627017619,4.126896025558496,0.0,0.0,0.0,0.0,0.0,0.0,0.0,0.0,0.0,0.0,0.0,0.0,62.88833,1,1.0,1.0,1.0,1.0,74.28
2026-01-14 05:30:42.427,,,,,,,,,,,,,,,,,,,,,,,,,,,,,,,,,,,,,,,,,,,,,,,,,,,,,,,,,,/muse/elements/jaw_clench
2026-01-14 05:30:42.661,,,,,,,,,,,,,,,,,,,,,,,,,,,,,,,,,,,,,,,,,,,,,,,,,,,,,,,,,,/muse/elements/blink
2026-01-14 05:30:43.032,0.005511418,0.0,0.0,-0.13180922,-0.09992706,0.0,0.0,0.3711177,0.44530028,0.0,0.0,1.1324948,0.98967284,0.0,0.0,1.7264541,1.1601406,0.0,0.0,1.7850702,750.7111,728.58453,741.0639,749.3835,564.5822,541.2165,551.3062,852.2279,-0.4306640625,-0.04156494140625,0.91607666015625,0.5084228515625,-0.216827392578125,-0.022430419921875,6.131414538778819,6.00363731731159,4.748570202417567,4.163608707054813,0.0,0.0,0.0,0.0,0.0,0.0,0.0,0.0,0.0,0.0,0.0,0.0,62.397602,1,1.0,1.0,1.0,1.0,74.25
2026-01-14 05:30:43.152,,,,,,,,,,,,,,,,,,,,,,,,,,,,,,,,,,,,,,,,,,,,,,,,,,,,,,,,,,/muse/elements/jaw_clench
2026-01-14 05:30:44.034,-0.65487283,0.0,0.0,-0.13180922,0.030830117,0.0,0.0,0.3711177,0.70034146,0.0,0.0,1.1324948,1.2486633,0.0,0.0,1.7264541,1.336658,0.0,0.0,1.7850702,718.05225,710.61774,721.504,720.0879,754.6939,759.9158,761.33185,1290.6,-0.426513671875,-0.0361328125,0.91900634765625,0.2392578125,-0.171966552734375,0.059814453125,6.1624204277233385,6.037817037407911,4.792424004005436,4.2081338960017165,0.0,0.0,0.0,0.0,0.0,0.0,0.0,0.0,0.0,0.0,0.0,0.0,61.107002,1,2.0,1.0,1.0,2.0,74.25
2026-01-14 05:30:44.053,,,,,,,,,,,,,,,,,,,,,,,,,,,,,,,,,,,,,,,,,,,,,,,,,,,,,,,,,,/muse/elements/jaw_clench
2026-01-14 05:30:44.114,,,,,,,,,,,,,,,,,,,,,,,,,,,,,,,,,,,,,,,,,,,,,,,,,,,,,,,,,,/muse/elements/blink
2026-01-14 05:30:44.672,,,,,,,,,,,,,,,,,,,,,,,,,,,,,,,,,,,,,,,,,,,,,,,,,,,,,,,,,,/muse/elements/jaw_clench
2026-01-14 05:30:45.045,-0.39969635,0.0,0.0,-0.13180922,0.11858086,0.0,0.0,0.3711177,0.7294729,0.0,0.0,1.1324948,1.0326941,0.0,0.0,1.7264541,1.126881,0.0,0.0,1.7850702,719.8224,708.405,718.40625,721.504,488.99774,456.3389,496.16675,557.05914,-0.4281005859375,-0.04034423828125,0.92291259765625,-0.10467529296875,0.179443359375,0.396270751953125,6.141180173092054,6.009710321150132,4.762181055241637,4.172886059652385,0.0,0.0,0.0,0.0,0.0,0.0,0.0,0.0,0.0,0.0,0.0,0.0,60.159733,1,1.0,1.0,1.0,1.0,74.25
2026-01-14 05:30:45.651,,,,,,,,,,,,,,,,,,,,,,,,,,,,,,,,,,,,,,,,,,,,,,,,,,,,,,,,,,/muse/elements/blink
2026-01-14 05:30:45.651,,,,,,,,,,,,,,,,,,,,,,,,,,,,,,,,,,,,,,,,,,,,,,,,,,,,,,,,,,/muse/elements/jaw_clench
2026-01-14 05:30:46.050,-0.46907988,0.0,0.0,-0.13180922,-0.13659613,0.0,0.0,0.3711177,0.4160747,0.0,0.0,1.1324948,0.71399736,0.0,0.0,1.7264541,0.9701131,0.0,0.0,1.7850702,741.4179,738.1432,741.3294,745.0467,753.80884,766.5538,763.72156,1237.3192,-0.42474365234375,-0.037353515625,0.9222412109375,0.22430419921875,0.157012939453125,0.381317138671875,6.142156736523377,6.012365352979043,4.763005030636816,4.175144362587321,0.0,0.0,0.0,0.0,0.0,0.0,0.0,0.0,0.0,0.0,0.0,0.0,60.072594,1,1.0,1.0,1.0,1.0,74.25
2026-01-14 05:30:46.680,,,,,,,,,,,,,,,,,,,,,,,,,,,,,,,,,,,,,,,,,,,,,,,,,,,,,,,,,,/muse/elements/jaw_clench
2026-01-14 05:30:46.814,,,,,,,,,,,,,,,,,,,,,,,,,,,,,,,,,,,,,,,,,,,,,,,,,,,,,,,,,,/muse/elements/jaw_clench
2026-01-14 05:30:47.059,-0.46907988,0.0,0.0,-0.13180922,-0.13659613,0.0,0.0,0.3711177,0.4160747,0.0,0.0,1.1324948,0.71399736,0.0,0.0,1.7264541,0.9701131,0.0,0.0,1.7850702,734.1604,718.31775,733.8949,732.12476,786.20215,780.2722,770.53656,1399.9054,-0.426025390625,-0.04583740234375,0.92120361328125,-0.142059326171875,-0.0897216796875,-0.0299072265625,6.1504270080823975,6.01752282860072,4.774906897456072,4.18371981021863,0.0,0.0,0.0,0.0,0.0,0.0,0.0,0.0,0.0,0.0,0.0,0.0,59.820354,1,1.0,1.0,1.0,1.0,74.25
2026-01-14 05:30:47.258,,,,,,,,,,,,,,,,,,,,,,,,,,,,,,,,,,,,,,,,,,,,,,,,,,,,,,,,,,/muse/elements/jaw_clench
2026-01-14 05:30:47.545,,,,,,,,,,,,,,,,,,,,,,,,,,,,,,,,,,,,,,,,,,,,,,,,,,,,,,,,,,/muse/elements/jaw_clench
2026-01-14 05:30:47.792,,,,,,,,,,,,,,,,,,,,,,,,,,,,,,,,,,,,,,,,,,,,,,,,,,,,,,,,,,/muse/elements/jaw_clench
2026-01-14 05:30:47.885,,,,,,,,,,,,,,,,,,,,,,,,,,,,,,,,,,,,,,,,,,,,,,,,,,,,,,,,,,/muse/elements/blink
2026-01-14 05:30:48.071,-0.46907988,0.0,0.0,-0.13180922,-0.13659613,0.0,0.0,0.3711177,0.4160747,0.0,0.0,1.1324948,0.71399736,0.0,0.0,1.7264541,0.9701131,0.0,0.0,1.7850702,731.0627,701.3245,714.42346,720.0879,749.91455,748.0559,754.6939,1245.3733,-0.42535400390625,-0.031005859375,0.9195556640625,-0.01495361328125,0.127105712890625,0.171966552734375,6.17307107264621,6.0469112843621105,4.808689888658417,4.222965453114941,0.0,0.0,0.0,0.0,0.0,0.0,0.0,0.0,0.0,0.0,0.0,0.0,59.479153,1,2.0,1.0,1.0,2.0,74.25
2026-01-14 05:30:48.923,,,,,,,,,,,,,,,,,,,,,,,,,,,,,,,,,,,,,,,,,,,,,,,,,,,,,,,,,,/muse/elements/jaw_clench
2026-01-14 05:30:49.037,,,,,,,,,,,,,,,,,,,,,,,,,,,,,,,,,,,,,,,,,,,,,,,,,,,,,,,,,,/muse/elements/jaw_clench
2026-01-14 05:30:49.081,-0.46907988,0.0,0.0,-0.13180922,-0.13659613,0.0,0.0,0.3711177,0.4160747,0.0,0.0,1.1324948,0.71399736,0.0,0.0,1.7264541,0.9701131,0.0,0.0,1.7850702,729.20404,717.78674,728.319,718.5833,752.2157,756.11,771.59863,1278.6516,-0.41973876953125,-0.04302978515625,0.92626953125,0.007476806640625,-0.829925537109375,-0.112152099609375,6.156103283026965,6.025426888872994,4.78217008797654,4.192814057172829,0.0,0.0,0.0,0.0,0.0,0.0,0.0,0.0,0.0,0.0,0.0,0.0,59.931335,1,2.0,1.0,1.0,2.0,74.24
2026-01-14 05:30:49.408,,,,,,,,,,,,,,,,,,,,,,,,,,,,,,,,,,,,,,,,,,,,,,,,,,,,,,,,,,/muse/elements/jaw_clench
2026-01-14 05:30:49.603,,,,,,,,,,,,,,,,,,,,,,,,,,,,,,,,,,,,,,,,,,,,,,,,,,,,,,,,,,/muse/elements/jaw_clench
2026-01-14 05:30:50.034,,,,,,,,,,,,,,,,,,,,,,,,,,,,,,,,,,,,,,,,,,,,,,,,,,,,,,,,,,/muse/elements/jaw_clench
2026-01-14 05:30:50.068,,,,,,,,,,,,,,,,,,,,,,,,,,,,,,,,,,,,,,,,,,,,,,,,,,,,,,,,,,/muse/elements/blink
2026-01-14 05:30:50.083,-0.46907988,0.0,0.0,-0.13180922,-0.13659613,0.0,0.0,0.3711177,0.4160747,0.0,0.0,1.1324948,0.71399736,0.0,0.0,1.7264541,0.9701131,0.0,0.0,1.7850702,726.8144,729.7351,730.4431,719.3798,737.1696,736.37305,753.54333,1268.5619,-0.419677734375,-0.0435791015625,0.9241943359375,0.11962890625,-0.620574951171875,-0.0,6.138830317335431,6.003026965167012,4.758976706482607,4.165073552201798,0.0,0.0,0.0,0.0,0.0,0.0,0.0,0.0,0.0,0.0,0.0,0.0,61.126648,1,2.0,1.0,1.0,2.0,74.24
2026-01-14 05:30:50.784,,,,,,,,,,,,,,,,,,,,,,,,,,,,,,,,,,,,,,,,,,,,,,,,,,,,,,,,,,/muse/elements/blink
2026-01-14 05:30:51.085,-0.46907988,0.0,0.0,-0.13180922,-0.13659613,0.0,0.0,0.3711177,0.4160747,0.0,0.0,1.1324948,0.71399736,0.0,0.0,1.7264541,0.9701131,0.0,0.0,1.7850702,729.9121,729.7351,733.1868,724.60175,749.472,754.5169,753.54333,1202.5361,-0.418701171875,-0.03973388671875,0.93109130859375,-0.16448974609375,0.246734619140625,0.127105712890625,6.124395489116181,5.97931478435019,4.7377669694585505,4.136295448584985,0.0,0.0,0.0,0.0,0.0,0.0,0.0,0.0,0.0,0.0,0.0,0.0,60.830364,1,2.0,1.0,1.0,2.0,74.24
2026-01-14 05:30:51.419,,,,,,,,,,,,,,,,,,,,,,,,,,,,,,,,,,,,,,,,,,,,,,,,,,,,,,,,,,/muse/elements/jaw_clench
2026-01-14 05:30:51.634,,,,,,,,,,,,,,,,,,,,,,,,,,,,,,,,,,,,,,,,,,,,,,,,,,,,,,,,,,/muse/elements/jaw_clench
2026-01-14 05:30:51.935,,,,,,,,,,,,,,,,,,,,,,,,,,,,,,,,,,,,,,,,,,,,,,,,,,,,,,,,,,/muse/elements/jaw_clench
2026-01-14 05:30:52.095,-0.46907988,0.0,0.0,-0.13180922,-0.13659613,0.0,0.0,0.3711177,0.4160747,0.0,0.0,1.1324948,0.71399736,0.0,0.0,1.7264541,0.9701131,0.0,0.0,1.7850702,732.39026,740.00183,738.0547,731.94775,768.7664,753.54333,782.9274,1302.1943,-0.42138671875,-0.0450439453125,0.9268798828125,-0.411224365234375,0.01495361328125,-0.8673095703125,6.13806737715471,6.001775743270629,4.761479150275374,4.1651040698090265,0.0,0.0,0.0,0.0,0.0,0.0,0.0,0.0,0.0,0.0,0.0,0.0,59.230106,1,2.0,1.0,1.0,2.0,74.24
2026-01-14 05:30:52.646,,,,,,,,,,,,,,,,,,,,,,,,,,,,,,,,,,,,,,,,,,,,,,,,,,,,,,,,,,/muse/elements/blink
2026-01-14 05:30:53.098,-0.07484031,0.0,0.0,0.055049974,0.43985626,0.0,0.0,0.4275372,0.9568769,0.0,0.0,1.0101058,1.4336623,0.0,0.0,1.5189428,1.4916693,0.0,0.0,1.5975199,733.1868,742.2145,734.2489,730.4431,755.1364,767.70435,771.59863,1338.2164,-0.4189453125,-0.049560546875,0.9229736328125,0.22430419921875,0.2093505859375,0.605621337890625,6.11133395322223,5.9597835157237204,4.719181746656176,4.112430679732017,0.0,0.0,0.0,0.0,0.0,0.0,0.0,0.0,0.0,0.0,0.0,0.0,58.557255,1,1.0,1.0,1.0,1.0,74.24
2026-01-14 05:30:53.277,,,,,,,,,,,,,,,,,,,,,,,,,,,,,,,,,,,,,,,,,,,,,,,,,,,,,,,,,,/muse/elements/blink
2026-01-14 05:30:53.547,,,,,,,,,,,,,,,,,,,,,,,,,,,,,,,,,,,,,,,,,,,,,,,,,,,,,,,,,,/muse/elements/jaw_clench
2026-01-14 05:30:54.105,0.20553486,0.0,0.0,0.17127216,0.5818734,0.0,0.0,0.505188,1.1561463,0.0,0.0,1.2024899,1.5316285,0.0,0.0,1.528495,1.5532696,0.0,0.0,1.5867949,727.61096,736.9926,724.95575,722.7431,476.87238,471.8275,517.31976,510.23926,-0.41888427734375,-0.04376220703125,0.9293212890625,0.216827392578125,-0.082244873046875,0.55328369140625,6.105108361347543,5.95071978637675,4.712650978709201,4.100986577021195,0.0,0.0,0.0,0.0,0.0,0.0,0.0,0.0,0.0,0.0,0.0,0.0,59.43507,1,1.0,1.0,1.0,1.0,74.24
2026-01-14 05:30:54.896,,,,,,,,,,,,,,,,,,,,,,,,,,,,,,,,,,,,,,,,,,,,,,,,,,,,,,,,,,/muse/elements/blink
2026-01-14 05:30:55.107,-0.23824802,0.0,0.0,-0.24875645,0.25232095,0.0,0.0,0.1523668,1.0563331,0.0,0.0,0.70820236,1.2020888,0.0,0.0,1.0818248,1.210305,0.0,0.0,1.1823456,735.84204,724.60175,722.30054,721.85803,507.14154,499.707,532.5429,508.73465,-0.42138671875,-0.04498291015625,0.92156982421875,-0.07476806640625,0.58319091796875,0.171966552734375,6.128118637198102,5.980352382995971,4.744297737405526,4.137790811339198,0.0,0.0,0.0,0.0,0.0,0.0,0.0,0.0,0.0,0.0,0.0,0.0,59.916187,1,1.0,1.0,1.0,1.0,74.22
2026-01-14 05:30:56.117,-0.3741516,0.0,0.0,-0.36458078,0.106407136,0.0,0.0,0.22055608,0.91382146,0.0,0.0,1.0133559,1.3160287,0.0,0.0,1.3551207,1.4190768,0.0,0.0,1.5225848,749.295,750.00305,745.4007,752.56976,738.4972,740.9754,723.0086,1149.8749,-0.42376708984375,-0.04022216796875,0.92156982421875,0.231781005859375,-0.067291259765625,0.231781005859375,6.133825429749899,5.992528908280285,4.750035047564552,4.150028371837971,0.0,0.0,0.0,0.0,0.0,0.0,0.0,0.0,0.0,0.0,0.0,0.0,59.370182,1,1.0,1.0,1.0,1.0,74.22
2026-01-14 05:30:56.264,,,,,,,,,,,,,,,,,,,,,,,,,,,,,,,,,,,,,,,,,,,,,,,,,,,,,,,,,,/muse/elements/jaw_clench
2026-01-14 05:30:57.136,-0.17862892,0.0,0.0,-0.2957111,-0.009337016,0.0,0.0,0.09260984,0.89865476,0.0,0.0,1.1728418,1.1433026,0.0,0.0,1.1738425,1.2380786,0.0,0.0,1.2950336,725.30975,726.1063,721.06146,721.85803,736.10754,720.88446,707.697,1276.8815,-0.41925048828125,-0.0426025390625,0.922607421875,-0.07476806640625,-0.49346923828125,-0.755157470703125,6.148107669933005,6.010778437403142,4.770939608516319,4.171573802541545,0.0,0.0,0.0,0.0,0.0,0.0,0.0,0.0,0.0,0.0,0.0,0.0,59.923286,1,1.0,1.0,1.0,1.0,74.22
2026-01-14 05:30:57.780,,,,,,,,,,,,,,,,,,,,,,,,,,,,,,,,,,,,,,,,,,,,,,,,,,,,,,,,,,/muse/elements/jaw_clench
2026-01-14 05:30:58.150,-0.09220874,0.0,0.0,0.21465412,0.02686619,0.0,0.0,0.25730705,0.85669065,0.0,0.0,1.1075125,1.0805513,0.0,0.0,1.0908326,1.2164237,0.0,0.0,1.2076603,722.5661,720.3534,726.6374,730.8857,718.5833,721.32697,708.5821,1081.725,-0.4190673828125,-0.04766845703125,0.93182373046875,0.31402587890625,-0.91217041015625,0.545806884765625,6.166265646234175,6.030920058174189,4.793858331545192,4.197208592613785,0.0,0.0,0.0,0.0,0.0,0.0,0.0,0.0,0.0,0.0,0.0,0.0,61.36122,1,1.0,1.0,1.0,1.0,74.22
2026-01-14 05:30:58.749,,,,,,,,,,,,,,,,,,,,,,,,,,,,,,,,,,,,,,,,,,,,,,,,,,,,,,,,,,/muse/elements/blink
2026-01-14 05:30:58.901,,,,,,,,,,,,,,,,,,,,,,,,,,,,,,,,,,,,,,,,,,,,,,,,,,,,,,,,,,/muse/elements/jaw_clench
2026-01-14 05:30:59.166,0.06141794,0.0,0.0,0.24533089,0.20254995,0.0,0.0,0.43466178,0.83443177,0.0,0.0,1.0957237,1.2470306,0.0,0.0,1.1611813,1.3891556,0.0,0.0,1.2821637,746.63983,741.772,746.37427,739.38226,621.9343,612.6412,604.32153,1001.44965,-0.42132568359375,-0.05059814453125,0.9210205078125,0.246734619140625,-0.6280517578125,-0.07476806640625,6.198278616217247,6.067937915742794,4.840489235390888,4.2428629330281575,0.0,0.0,0.0,0.0,0.0,0.0,0.0,0.0,0.0,0.0,0.0,0.0,61.370735,1,1.0,1.0,1.0,1.0,74.22
2026-01-14 05:30:59.259,,,,,,,,,,,,,,,,,,,,,,,,,,,,,,,,,,,,,,,,,,,,,,,,,,,,,,,,,,/muse/elements/jaw_clench
2026-01-14 05:30:59.812,,,,,,,,,,,,,,,,,,,,,,,,,,,,,,,,,,,,,,,,,,,,,,,,,,,,,,,,,,/muse/elements/jaw_clench
2026-01-14 05:31:00.177,0.06141794,0.0,0.0,0.26448005,0.20254995,0.0,0.0,0.42140704,0.83443177,0.0,0.0,1.0810289,1.2470306,0.0,0.0,1.2485387,1.3891556,0.0,0.0,1.3591751,714.9545,713.71545,713.4499,723.1856,771.59863,772.30664,748.1444,1140.3162,-0.41790771484375,-0.047119140625,0.92779541015625,0.2093505859375,-0.6280517578125,0.35888671875,6.227667071978638,6.102575399947548,4.883641132012493,4.2910197172352955,0.0,0.0,0.0,0.0,0.0,0.0,0.0,0.0,0.0,0.0,0.0,0.0,60.82255,1,1.0,1.0,1.0,1.0,74.19
2026-01-14 05:31:00.516,,,,,,,,,,,,,,,,,,,,,,,,,,,,,,,,,,,,,,,,,,,,,,,,,,,,,,,,,,/muse/elements/jaw_clench
2026-01-14 05:31:00.646,,,,,,,,,,,,,,,,,,,,,,,,,,,,,,,,,,,,,,,,,,,,,,,,,,,,,,,,,,/muse/elements/blink
2026-01-14 05:31:01.179,0.06141794,0.0,0.0,0.26448005,0.20254995,0.0,0.0,0.42140704,0.83443177,0.0,0.0,1.0810289,1.2470306,0.0,0.0,1.2485387,1.3891556,0.0,0.0,1.3591751,756.55255,750.18005,757.8801,744.5157,499.08746,497.9369,518.47034,657.7794,-0.41790771484375,-0.0406494140625,0.928466796875,0.022430419921875,-0.426177978515625,0.515899658203125,6.230779867915981,6.109014615072837,4.889622583029349,4.299412059223232,0.0,0.0,0.0,0.0,0.0,0.0,0.0,0.0,0.0,0.0,0.0,0.0,61.540714,1,2.0,1.0,1.0,2.0,74.19
2026-01-14 05:31:01.775,,,,,,,,,,,,,,,,,,,,,,,,,,,,,,,,,,,,,,,,,,,,,,,,,,,,,,,,,,/muse/elements/jaw_clench
2026-01-14 05:31:02.186,0.16354585,0.0,0.0,0.16077068,0.087607294,0.0,0.0,0.29004318,0.2657951,0.0,0.0,0.5787471,0.30926555,0.0,0.0,0.79856795,0.27740213,0.0,0.0,0.877789,729.8236,705.4843,731.85925,718.8488,749.472,748.1444,731.2397,1171.1165,-0.41790771484375,-0.0401611328125,0.9267578125,0.007476806640625,-0.43365478515625,0.441131591796875,6.217748849629259,6.091589061345159,4.872441170159502,4.277408864411225,0.0,0.0,0.0,0.0,0.0,0.0,0.0,0.0,0.0,0.0,0.0,0.0,62.57376,1,1.0,1.0,1.0,1.0,74.19
2026-01-14 05:31:02.914,,,,,,,,,,,,,,,,,,,,,,,,,,,,,,,,,,,,,,,,,,,,,,,,,,,,,,,,,,/muse/elements/jaw_clench
2026-01-14 05:31:03.055,,,,,,,,,,,,,,,,,,,,,,,,,,,,,,,,,,,,,,,,,,,,,,,,,,,,,,,,,,/muse/elements/jaw_clench
2026-01-14 05:31:03.204,0.13024879,0.0,0.042969584,0.22906965,0.07443924,0.0,-0.15635929,-0.012899031,0.3026454,0.0,0.060454376,0.43233642,0.49154553,0.0,0.58425057,0.6499557,0.56635976,0.0,0.6898873,0.7285015,718.9373,701.6786,731.85925,708.6706,763.456,757.9686,768.5009,1281.3069,-0.41705322265625,-0.049560546875,0.92535400390625,0.037384033203125,0.201873779296875,-0.426177978515625,6.23108504398827,6.104986290918628,4.889134301313687,4.295109076603962,0.0,0.0,0.0,0.0,0.0,0.0,0.0,0.0,0.0,0.0,0.0,0.0,62.483074,1,1.0,1.0,1.0,1.0,74.19
2026-01-14 05:31:03.784,,,,,,,,,,,,,,,,,,,,,,,,,,,,,,,,,,,,,,,,,,,,,,,,,,,,,,,,,,/muse/elements/jaw_clench
2026-01-14 05:31:04.210,-0.3040932,0.0,-0.049620368,-0.32643342,0.32638147,0.0,-0.15329519,0.2960871,0.93119246,0.0,0.060454376,1.0050609,1.1722941,0.0,0.6526392,1.2033904,1.1434536,0.0,0.7693417,1.1843141,742.92255,737.0811,733.1868,738.67426,764.07556,758.5882,771.95264,1250.4181,-0.41937255859375,-0.0537109375,0.9267578125,0.37384033203125,-0.538330078125,0.777587890625,6.264288200653268,6.157934339460697,4.93796247287986,4.365909925374914,0.0,0.0,0.0,0.0,0.0,0.0,0.0,0.0,0.0,0.0,0.0,0.0,62.358795,1,1.0,1.0,1.0,1.0,74.19
2026-01-14 05:31:04.373,,,,,,,,,,,,,,,,,,,,,,,,,,,,,,,,,,,,,,,,,,,,,,,,,,,,,,,,,,/muse/elements/jaw_clench
2026-01-14 05:31:04.636,,,,,,,,,,,,,,,,,,,,,,,,,,,,,,,,,,,,,,,,,,,,,,,,,,,,,,,,,,/muse/elements/jaw_clench
2026-01-14 05:31:04.904,,,,,,,,,,,,,,,,,,,,,,,,,,,,,,,,,,,,,,,,,,,,,,,,,,,,,,,,,,/muse/elements/jaw_clench
2026-01-14 05:31:05.019,,,,,,,,,,,,,,,,,,,,,,,,,,,,,,,,,,,,,,,,,,,,,,,,,,,,,,,,,,/muse/elements/blink
2026-01-14 05:31:05.127,,,,,,,,,,,,,,,,,,,,,,,,,,,,,,,,,,,,,,,,,,,,,,,,,,,,,,,,,,/muse/elements/jaw_clench
2026-01-14 05:31:05.216,0.24078256,0.0,-0.049620368,0.105474815,0.27161148,0.0,-0.15329519,0.47679606,0.9182461,0.0,0.060454376,1.0590236,1.3357084,0.0,0.6526392,1.3932089,1.3380115,0.0,0.7693417,1.4051368,757.9686,736.46155,743.9846,749.64905,760.97784,747.08234,752.56976,1230.8582,-0.41949462890625,-0.046142578125,0.93646240234375,-0.171966552734375,-0.127105712890625,-0.5682373046875,6.270483274920726,6.174200224113678,4.948887776267792,4.3880351906158355,0.0,0.0,0.0,0.0,0.0,0.0,0.0,0.0,0.0,0.0,0.0,0.0,64.01977,1,1.0,1.0,1.0,1.0,74.19
2026-01-14 05:31:05.497,,,,,,,,,,,,,,,,,,,,,,,,,,,,,,,,,,,,,,,,,,,,,,,,,,,,,,,,,,/muse/elements/jaw_clench
2026-01-14 05:31:06.230,0.3395878,0.0,-0.049620368,0.18860346,0.22731818,0.0,-0.15329519,0.29134727,0.8088336,0.0,0.060454376,1.0000955,1.2681736,0.0,0.6526392,1.28434,1.2859497,0.0,0.7693417,1.3071293,749.73755,738.67426,743.01105,743.7191,751.5077,755.6675,761.8629,1245.9043,-0.41741943359375,-0.049560546875,0.92645263671875,0.157012939453125,-0.157012939453125,0.2691650390625,6.272924683499034,6.177923372195599,4.950657797487065,4.391941444341129,0.0,0.0,0.0,0.0,0.0,0.0,0.0,0.0,0.0,0.0,0.0,0.0,65.11921,1,1.0,1.0,1.0,1.0,74.18
2026-01-14 05:31:07.242,0.027813006,0.0,-0.049620368,0.22602719,0.8003046,0.0,-0.15329519,0.64657164,1.21731,0.0,0.060454376,1.263003,1.5915867,0.0,0.6526392,1.5584116,1.6060745,0.0,0.7693417,1.6211367,718.9373,710.61774,708.5821,713.1844,733.6294,728.05347,721.681,1015.7877,-0.4130859375,-0.04705810546875,0.92919921875,-0.01495361328125,-1.667327880859375,0.11962890625,6.19608134849677,6.042791407386215,4.839482154352336,4.2162515795245925,0.0,0.0,0.0,0.0,0.0,0.0,0.0,0.0,0.0,0.0,0.0,0.0,64.10077,1,1.0,4.0,4.0,1.0,74.18
2026-01-14 05:31:07.252,,,,,,,,,,,,,,,,,,,,,,,,,,,,,,,,,,,,,,,,,,,,,,,,,,,,,,,,,,/muse/elements/jaw_clench
2026-01-14 05:31:07.659,,,,,,,,,,,,,,,,,,,,,,,,,,,,,,,,,,,,,,,,,,,,,,,,,,,,,,,,,,/muse/elements/jaw_clench
2026-01-14 05:31:07.908,,,,,,,,,,,,,,,,,,,,,,,,,,,,,,,,,,,,,,,,,,,,,,,,,,,,,,,,,,/muse/elements/blink
2026-01-14 05:31:08.253,0.21436127,0.0,-0.049620368,0.15649214,0.70258015,0.0,-0.15329519,0.6522007,1.2578385,0.0,0.060454376,1.2557673,1.5725439,0.0,0.6526392,1.5671501,1.5941128,0.0,0.7693417,1.6499581,720.88446,677.78186,711.8568,724.2477,768.9434,772.21814,746.63983,1129.5184,-0.41021728515625,-0.0419921875,0.92706298828125,0.1495361328125,-1.5850830078125,0.396270751953125,6.159460219822139,6.004308704670624,4.785923753665689,4.164768376129509,0.0,0.0,0.0,0.0,0.0,0.0,0.0,0.0,0.0,0.0,0.0,0.0,63.35204,1,1.0,1.0,1.0,1.0,74.18
2026-01-14 05:31:08.272,,,,,,,,,,,,,,,,,,,,,,,,,,,,,,,,,,,,,,,,,,,,,,,,,,,,,,,,,,/muse/elements/jaw_clench
2026-01-14 05:31:08.489,,,,,,,,,,,,,,,,,,,,,,,,,,,,,,,,,,,,,,,,,,,,,,,,,,,,,,,,,,/muse/elements/jaw_clench
2026-01-14 05:31:08.907,,,,,,,,,,,,,,,,,,,,,,,,,,,,,,,,,,,,,,,,,,,,,,,,,,,,,,,,,,/muse/elements/blink
2026-01-14 05:31:09.138,,,,,,,,,,,,,,,,,,,,,,,,,,,,,,,,,,,,,,,,,,,,,,,,,,,,,,,,,,/muse/elements/jaw_clench
2026-01-14 05:31:09.271,0.3074307,0.0,-0.049620368,0.4082363,0.55414474,0.0,-0.15329519,0.63114953,1.331795,0.0,0.060454376,1.313004,1.8686379,0.0,0.6526392,1.8596077,1.7597544,0.0,0.7693417,1.7615255,717.78674,705.3073,714.7775,720.1764,774.51935,762.3939,769.4744,1311.1335,-0.4124755859375,-0.0546875,0.9334716796875,0.201873779296875,-0.58319091796875,-1.114044189453125,6.1597653958944285,6.005651479388694,4.783818038766898,4.165256657845171,0.0,0.0,0.0,0.0,0.0,0.0,0.0,0.0,0.0,0.0,0.0,0.0,63.157574,1,1.0,1.0,1.0,1.0,74.18
2026-01-14 05:31:09.774,,,,,,,,,,,,,,,,,,,,,,,,,,,,,,,,,,,,,,,,,,,,,,,,,,,,,,,,,,/muse/elements/blink
2026-01-14 05:31:10.004,,,,,,,,,,,,,,,,,,,,,,,,,,,,,,,,,,,,,,,,,,,,,,,,,,,,,,,,,,/muse/elements/jaw_clench
2026-01-14 05:31:10.282,0.1503315,0.0,-0.049620368,0.25686324,0.44686037,0.0,-0.15329519,0.5726904,1.331795,0.0,0.060454376,1.3153021,1.7372026,0.0,0.6526392,1.742457,1.6543623,0.0,0.7693417,1.6626652,750.00305,741.6835,754.9594,742.303,766.5538,778.76764,784.1665,1360.343,-0.41717529296875,-0.0501708984375,0.9290771484375,0.418701171875,-0.94207763671875,0.418701171875,6.18512552750161,6.036108051403095,4.819096392723458,4.201877786519801,0.0,0.0,0.0,0.0,0.0,0.0,0.0,0.0,0.0,0.0,0.0,0.0,62.38907,1,1.0,1.0,1.0,1.0,74.18
2026-01-14 05:31:10.497,,,,,,,,,,,,,,,,,,,,,,,,,,,,,,,,,,,,,,,,,,,,,,,,,,,,,,,,,,/muse/elements/jaw_clench
2026-01-14 05:31:11.169,,,,,,,,,,,,,,,,,,,,,,,,,,,,,,,,,,,,,,,,,,,,,,,,,,,,,,,,,,/muse/elements/jaw_clench
2026-01-14 05:31:11.283,-0.47593024,0.0,-0.84679896,-0.12552172,-0.38644162,0.0,-0.43686327,0.05926581,0.5880336,0.0,0.51510185,0.77041763,1.0542656,0.0,0.9096727,1.0704013,1.0601875,0.0,0.982453,1.1406971,756.0215,747.8789,753.72034,742.126,745.4007,757.6146,743.09955,1172.975,-0.41802978515625,-0.05340576171875,0.928466796875,0.127105712890625,0.10467529296875,0.127105712890625,6.1506101137257705,6.003271106024843,4.765629544858498,4.156620174999404,0.0,0.0,0.0,0.0,0.0,0.0,0.0,0.0,0.0,0.0,0.0,0.0,61.866737,1,1.0,1.0,1.0,1.0,74.17
2026-01-14 05:31:11.772,,,,,,,,,,,,,,,,,,,,,,,,,,,,,,,,,,,,,,,,,,,,,,,,,,,,,,,,,,/muse/elements/blink
2026-01-14 05:31:12.299,-0.18645789,0.0,-0.84679896,-0.08883795,0.043869462,0.0,-0.43686327,0.26361573,1.0661256,0.0,0.51510185,1.0606552,1.0421857,0.0,0.9096727,1.1089264,1.1515483,0.0,0.982453,1.2237839,761.9514,749.73755,761.15485,750.44556,742.2145,744.6042,732.03625,1147.9277,-0.41485595703125,-0.05078125,0.92669677734375,0.261688232421875,0.276641845703125,0.28411865234375,6.1534177335908256,6.008398064039292,4.768345611901867,4.162113344300598,0.0,0.0,0.0,0.0,0.0,0.0,0.0,0.0,0.0,0.0,0.0,0.0,62.852127,1,1.0,1.0,1.0,1.0,74.17
2026-01-14 05:31:13.033,,,,,,,,,,,,,,,,,,,,,,,,,,,,,,,,,,,,,,,,,,,,,,,,,,,,,,,,,,/muse/elements/jaw_clench
2026-01-14 05:31:13.277,,,,,,,,,,,,,,,,,,,,,,,,,,,,,,,,,,,,,,,,,,,,,,,,,,,,,,,,,,/muse/elements/jaw_clench
2026-01-14 05:31:13.305,0.09698383,0.0,-0.8543105,-0.052491598,0.45018145,0.0,-0.60751283,0.45819333,1.1294808,0.0,0.39709443,1.0862263,1.2932348,0.0,0.85527843,1.2401618,1.3554386,0.0,0.94572043,1.3060485,739.7363,741.2409,746.90533,747.8789,730.1776,725.39825,705.2188,1294.9368,-0.414306640625,-0.0576171875,0.93048095703125,0.231781005859375,-0.889739990234375,-0.291595458984375,6.177129914407648,6.035131487971771,4.80060272274277,4.19522494814391,0.0,0.0,0.0,0.0,0.0,0.0,0.0,0.0,0.0,0.0,0.0,0.0,64.10524,1,1.0,1.0,1.0,1.0,74.17
2026-01-14 05:31:13.529,,,,,,,,,,,,,,,,,,,,,,,,,,,,,,,,,,,,,,,,,,,,,,,,,,,,,,,,,,/muse/elements/jaw_clench
2026-01-14 05:31:14.309,-0.032296166,0.0,-0.4578133,-0.24503168,0.08850799,0.0,-0.40590328,0.08343667,0.76886886,0.0,-0.020834103,0.6135441,0.7710047,0.0,0.40411085,0.75703585,0.8194722,0.0,0.6561756,0.8253686,735.134,687.8716,717.60974,714.42346,684.1543,679.46344,688.84515,878.1603,-0.41497802734375,-0.05615234375,0.9312744140625,0.276641845703125,-0.635528564453125,0.306549072265625,6.204443172877476,6.066595141024724,4.842350809431848,4.236728893975156,0.0,0.0,0.0,0.0,0.0,0.0,0.0,0.0,0.0,0.0,0.0,0.0,64.18759,1,1.0,1.0,1.0,1.0,74.17
2026-01-14 05:31:14.900,,,,,,,,,,,,,,,,,,,,,,,,,,,,,,,,,,,,,,,,,,,,,,,,,,,,,,,,,,/muse/elements/jaw_clench
2026-01-14 05:31:15.316,-0.18494043,0.0,-0.56119406,-0.32627818,0.04920014,0.0,-0.4928776,-0.2312654,0.73860395,0.0,-0.076008886,0.72244066,0.92885786,0.0,0.4495988,0.9712351,1.0232722,0.0,0.6924037,1.1057471,731.3282,714.15796,719.6454,724.77875,735.84204,740.35583,728.93854,1010.65436,-0.41497802734375,-0.051025390625,0.92999267578125,-0.007476806640625,-0.52337646484375,-0.19439697265625,6.222051832248527,6.087499701976492,4.866642824786019,4.262424719261856,0.0,0.0,0.0,0.0,0.0,0.0,0.0,0.0,0.0,0.0,0.0,0.0,64.096725,1,1.0,1.0,1.0,1.0,74.17
2026-01-14 05:31:15.894,,,,,,,,,,,,,,,,,,,,,,,,,,,,,,,,,,,,,,,,,,,,,,,,,,,,,,,,,,/muse/elements/jaw_clench
2026-01-14 05:31:16.293,,,,,,,,,,,,,,,,,,,,,,,,,,,,,,,,,,,,,,,,,,,,,,,,,,,,,,,,,,/muse/elements/jaw_clench
2026-01-14 05:31:16.320,-0.29242408,0.0,-0.56119406,-0.12925513,0.05457734,0.0,-0.4928776,-0.06936779,0.7247236,0.0,-0.076008886,0.62981045,1.0668323,0.0,0.4495988,1.0273415,1.1595061,0.0,0.6924037,1.1575263,720.4419,715.6626,727.61096,727.52246,734.51447,750.44556,727.78796,1138.546,-0.41412353515625,-0.05426025390625,0.9273681640625,0.16448974609375,-0.49346923828125,-0.859832763671875,6.1939756335979785,6.051519443053668,4.823979209880076,4.215915885845075,0.0,0.0,0.0,0.0,0.0,0.0,0.0,0.0,0.0,0.0,0.0,0.0,65.01543,1,1.0,1.0,1.0,1.0,74.17
2026-01-14 05:31:16.537,,,,,,,,,,,,,,,,,,,,,,,,,,,,,,,,,,,,,,,,,,,,,,,,,,,,,,,,,,/muse/elements/blink
2026-01-14 05:31:17.137,,,,,,,,,,,,,,,,,,,,,,,,,,,,,,,,,,,,,,,,,,,,,,,,,,,,,,,,,,/muse/elements/jaw_clench
2026-01-14 05:31:17.335,-0.14682806,0.0,-0.56119406,-0.10901166,0.09123412,0.0,-0.4928776,0.041587573,0.6607531,0.0,-0.076008886,0.5923903,1.2632914,0.0,0.4495988,1.1038978,1.3279308,0.0,0.6924037,1.2280229,746.46277,736.01904,742.56854,736.9926,767.79285,770.271,773.2802,1315.7358,-0.41650390625,-0.05072021484375,0.92529296875,-0.10467529296875,-0.299072265625,-0.58319091796875,6.211065493646139,6.071447440574112,4.850499010561953,4.243473285172734,0.0,0.0,0.0,0.0,0.0,0.0,0.0,0.0,0.0,0.0,0.0,0.0,64.738846,1,1.0,1.0,1.0,1.0,74.12
2026-01-14 05:31:17.763,,,,,,,,,,,,,,,,,,,,,,,,,,,,,,,,,,,,,,,,,,,,,,,,,,,,,,,,,,/muse/elements/jaw_clench
2026-01-14 05:31:18.342,-0.14682806,0.0,-0.56119406,-0.10901166,0.09123412,0.0,-0.4928776,0.041587573,0.6607531,0.0,-0.076008886,0.5923903,1.2632914,0.0,0.4495988,1.1038978,1.3279308,0.0,0.6924037,1.2280229,753.80884,748.4099,750.00305,739.20526,773.3687,783.36993,736.10754,1180.144,-0.41387939453125,-0.0587158203125,0.9296875,0.059814453125,-0.10467529296875,0.179443359375,6.263250602007487,6.137975824333023,4.926182676489521,4.332187969387025,0.0,0.0,0.0,0.0,0.0,0.0,0.0,0.0,0.0,0.0,0.0,0.0,62.99577,1,1.0,1.0,1.0,1.0,74.12
2026-01-14 05:31:18.668,,,,,,,,,,,,,,,,,,,,,,,,,,,,,,,,,,,,,,,,,,,,,,,,,,,,,,,,,,/muse/elements/jaw_clench
2026-01-14 05:31:18.912,,,,,,,,,,,,,,,,,,,,,,,,,,,,,,,,,,,,,,,,,,,,,,,,,,,,,,,,,,/muse/elements/jaw_clench
2026-01-14 05:31:19.133,,,,,,,,,,,,,,,,,,,,,,,,,,,,,,,,,,,,,,,,,,,,,,,,,,,,,,,,,,/muse/elements/jaw_clench
2026-01-14 05:31:19.346,-0.14682806,0.0,-0.56119406,-0.10901166,0.09123412,0.0,-0.4928776,0.041587573,0.6607531,0.0,-0.076008886,0.5923903,1.2632914,0.0,0.4495988,1.1038978,1.3279308,0.0,0.6924037,1.2280229,747.43634,740.5329,739.7363,741.772,776.555,776.46643,782.30786,1360.4315,-0.41448974609375,-0.05609130859375,0.927490234375,0.22430419921875,-0.411224365234375,0.61309814453125,6.290533342870086,6.186315714183535,4.965214696135231,4.395176310707389,0.0,0.0,0.0,0.0,0.0,0.0,0.0,0.0,0.0,0.0,0.0,0.0,62.701584,1,2.0,1.0,1.0,2.0,74.12
2026-01-14 05:31:19.357,,,,,,,,,,,,,,,,,,,,,,,,,,,,,,,,,,,,,,,,,,,,,,,,,,,,,,,,,,/muse/elements/jaw_clench
2026-01-14 05:31:19.883,,,,,,,,,,,,,,,,,,,,,,,,,,,,,,,,,,,,,,,,,,,,,,,,,,,,,,,,,,/muse/elements/jaw_clench
2026-01-14 05:31:20.315,,,,,,,,,,,,,,,,,,,,,,,,,,,,,,,,,,,,,,,,,,,,,,,,,,,,,,,,,,/muse/elements/blink
2026-01-14 05:31:20.360,0.32284263,0.0,-0.20539308,0.2535113,0.020385133,0.0,0.0855832,-0.071940206,0.53977853,0.0,0.24061894,0.7863428,0.5164302,0.0,0.41399917,0.44235924,0.68841285,0.0,0.50698954,0.5254568,706.3694,690.7038,697.8728,706.81195,756.72955,745.4007,770.71356,1282.4574,-0.41448974609375,-0.05206298828125,0.92718505859375,0.04486083984375,-0.22430419921875,0.037384033203125,6.292730610590564,6.190405073552202,4.968113868821972,4.401523973010991,0.0,0.0,0.0,0.0,0.0,0.0,0.0,0.0,0.0,0.0,0.0,0.0,63.644238,1,1.0,1.0,1.0,1.0,74.12
2026-01-14 05:31:20.528,,,,,,,,,,,,,,,,,,,,,,,,,,,,,,,,,,,,,,,,,,,,,,,,,,,,,,,,,,/muse/elements/jaw_clench
2026-01-14 05:31:20.875,,,,,,,,,,,,,,,,,,,,,,,,,,,,,,,,,,,,,,,,,,,,,,,,,,,,,,,,,,/muse/elements/jaw_clench
2026-01-14 05:31:21.251,,,,,,,,,,,,,,,,,,,,,,,,,,,,,,,,,,,,,,,,,,,,,,,,,,,,,,,,,,/muse/elements/blink
2026-01-14 05:31:21.376,0.04318715,0.0,-0.17813227,0.20007698,0.15439782,0.0,0.24082966,0.18677044,0.89632225,0.0,0.59496194,1.0220803,1.3033174,0.0,0.80684906,1.254408,1.2234384,0.0,0.81621605,1.2097216,755.1364,752.92377,749.3835,748.8525,751.4191,740.35583,729.6466,1128.8988,-0.417236328125,-0.048583984375,0.92718505859375,-0.059814453125,0.3887939453125,0.560760498046875,6.291235247836349,6.183782752783539,4.963444674915958,4.390568152015831,0.0,0.0,0.0,0.0,0.0,0.0,0.0,0.0,0.0,0.0,0.0,0.0,63.949776,1,1.0,1.0,1.0,1.0,74.12
2026-01-14 05:31:21.776,,,,,,,,,,,,,,,,,,,,,,,,,,,,,,,,,,,,,,,,,,,,,,,,,,,,,,,,,,/muse/elements/jaw_clench
2026-01-14 05:31:22.389,0.070929766,0.0,-0.34964934,0.06159728,0.26349396,0.0,0.25237063,0.3356944,0.9114962,0.0,0.57551724,1.0661747,1.2996296,0.0,1.0343087,1.3369322,1.3050393,0.0,1.0367365,1.3416961,718.14075,710.52924,722.5661,715.9281,744.6042,746.02026,741.949,1184.7463,-0.41156005859375,-0.04949951171875,0.93145751953125,0.01495361328125,-0.5682373046875,-0.478515625,6.196508594997973,6.032354385713945,4.826603724101757,4.195041842500537,0.0,0.0,0.0,0.0,0.0,0.0,0.0,0.0,0.0,0.0,0.0,0.0,63.17172,1,1.0,1.0,1.0,1.0,74.12
2026-01-14 05:31:22.889,,,,,,,,,,,,,,,,,,,,,,,,,,,,,,,,,,,,,,,,,,,,,,,,,,,,,,,,,,/muse/elements/jaw_clench
2026-01-14 05:31:23.039,,,,,,,,,,,,,,,,,,,,,,,,,,,,,,,,,,,,,,,,,,,,,,,,,,,,,,,,,,/muse/elements/jaw_clench
2026-01-14 05:31:23.402,-0.09838134,0.0,-0.34964934,-0.020780673,0.10480987,0.0,0.25237063,0.4917557,0.892937,0.0,0.57551724,1.0214592,1.4211028,0.0,1.0343087,1.4080136,1.4610008,0.0,1.0367365,1.4820735,730.0891,726.3718,729.38104,719.3798,741.595,732.6558,751.8617,1260.7733,-0.416748046875,-0.05657958984375,0.933349609375,0.142059326171875,-0.680389404296875,-0.770111083984375,6.149786138330591,5.983373626111628,4.756993062012731,4.129062775671745,0.0,0.0,0.0,0.0,0.0,0.0,0.0,0.0,0.0,0.0,0.0,0.0,63.76605,1,1.0,1.0,1.0,1.0,74.09
2026-01-14 05:31:23.785,,,,,,,,,,,,,,,,,,,,,,,,,,,,,,,,,,,,,,,,,,,,,,,,,,,,,,,,,,/muse/elements/jaw_clench
2026-01-14 05:31:24.418,0.28292054,0.0,-0.3117173,-0.0298654,0.49225438,0.0,0.0108547425,0.4017838,0.8806694,0.0,0.58165616,0.896793,1.2897577,0.0,1.1024894,1.3723506,1.3240368,0.0,1.148903,1.3821793,745.1352,740.8869,737.3466,731.4167,750.18005,741.772,737.7892,1136.0679,-0.41680908203125,-0.057373046875,0.93206787109375,0.25421142578125,-0.8074951171875,-0.67291259765625,6.219183177169015,6.05734830603438,4.856297355935436,4.2254068616932505,0.0,0.0,0.0,0.0,0.0,0.0,0.0,0.0,0.0,0.0,0.0,0.0,64.45409,1,1.0,1.0,1.0,1.0,74.09
2026-01-14 05:31:24.895,,,,,,,,,,,,,,,,,,,,,,,,,,,,,,,,,,,,,,,,,,,,,,,,,,,,,,,,,,/muse/elements/jaw_clench
2026-01-14 05:31:25.430,0.17216557,0.0,-0.32517308,0.052557986,0.62712234,0.0,0.048132237,0.5085357,1.0300153,0.0,0.5758941,0.9927545,1.3519934,0.0,1.1833708,1.4123425,1.3991168,0.0,1.2465987,1.4382675,721.85803,720.79596,721.32697,724.1592,774.3423,776.3779,757.7031,1172.7095,-0.417236328125,-0.05181884765625,0.938232421875,-0.16448974609375,-0.246734619140625,0.351409912109375,6.1717588155353695,6.0142574446272326,4.7885482678873705,4.164646305700594,0.0,0.0,0.0,0.0,0.0,0.0,0.0,0.0,0.0,0.0,0.0,0.0,63.628006,1,1.0,1.0,1.0,1.0,74.09
2026-01-14 05:31:25.530,,,,,,,,,,,,,,,,,,,,,,,,,,,,,,,,,,,,,,,,,,,,,,,,,,,,,,,,,,/muse/elements/jaw_clench
2026-01-14 05:31:26.441,-0.2378354,0.0,0.052362144,-0.015044416,0.6966283,0.0,0.100418046,0.40828365,0.9815311,0.0,0.5782613,0.9927545,1.1454952,0.0,1.0872581,1.1192396,1.2336788,0.0,1.1990422,1.1733961,719.4683,727.52246,718.14075,729.9121,757.08356,750.5341,756.55255,1199.704,-0.41815185546875,-0.05352783203125,0.922119140625,0.2392578125,-0.11962890625,0.19439697265625,6.175024199508857,6.023290656366974,4.790806570822307,4.1759683379825,0.0,0.0,0.0,0.0,0.0,0.0,0.0,0.0,0.0,0.0,0.0,0.0,62.5671,1,1.0,1.0,1.0,1.0,74.09
2026-01-14 05:31:27.256,,,,,,,,,,,,,,,,,,,,,,,,,,,,,,,,,,,,,,,,,,,,,,,,,,,,,,,,,,/muse/elements/jaw_clench
2026-01-14 05:31:27.455,-0.20698197,0.0,0.10261438,-0.015044416,0.6448443,0.0,0.13386166,0.40828365,0.9231521,0.0,0.5782613,0.9927545,1.0410159,0.0,1.1304168,1.1192396,1.0892936,0.0,1.248461,1.1733961,722.5661,720.70746,727.2569,707.43146,756.72955,762.0399,766.2882,1266.0837,-0.41571044921875,-0.0567626953125,0.926025390625,0.067291259765625,-0.710296630859375,-0.291595458984375,6.172216579643802,6.01804162792361,4.784703049376535,4.167240302315046,0.0,0.0,0.0,0.0,0.0,0.0,0.0,0.0,0.0,0.0,0.0,0.0,63.47809,1,1.0,1.0,1.0,1.0,74.09
2026-01-14 05:31:27.490,,,,,,,,,,,,,,,,,,,,,,,,,,,,,,,,,,,,,,,,,,,,,,,,,,,,,,,,,,/muse/elements/jaw_clench
2026-01-14 05:31:28.256,,,,,,,,,,,,,,,,,,,,,,,,,,,,,,,,,,,,,,,,,,,,,,,,,,,,,,,,,,/muse/elements/jaw_clench
2026-01-14 05:31:28.469,-0.031536385,0.0,-0.090066776,0.12881085,0.098525226,0.0,-0.14047568,0.1391237,0.83145773,0.0,0.06564356,0.93504316,1.0094146,0.0,0.55711496,1.2598635,1.0461874,0.0,0.69239587,1.3074261,719.2028,718.31775,722.8316,715.6626,748.587,751.5962,761.7744,1269.8895,-0.41204833984375,-0.052978515625,0.9293212890625,0.07476806640625,-0.91217041015625,-0.097198486328125,6.174993681901628,6.021215459075412,4.78778532770665,4.1686135946403455,0.0,0.0,0.0,0.0,0.0,0.0,0.0,0.0,0.0,0.0,0.0,0.0,64.68182,1,1.0,1.0,1.0,1.0,74.09
2026-01-14 05:31:28.498,,,,,,,,,,,,,,,,,,,,,,,,,,,,,,,,,,,,,,,,,,,,,,,,,,,,,,,,,,/muse/elements/jaw_clench
2026-01-14 05:31:29.486,0.09886096,0.0,-0.31253636,0.13770127,0.0010123423,0.0,0.12938406,0.17210747,0.31714395,0.0,0.6082274,0.59192216,0.8191759,0.0,0.95786667,1.0021566,0.943922,0.0,1.1077541,1.1711043,746.99384,731.50525,738.58575,741.8605,743.5421,742.3915,723.6282,1325.1176,-0.4161376953125,-0.0557861328125,0.93060302734375,0.04486083984375,-0.19439697265625,0.635528564453125,6.213140690937701,6.065557542378943,4.846257063157142,4.227726199842643,0.0,0.0,0.0,0.0,0.0,0.0,0.0,0.0,0.0,0.0,0.0,0.0,64.09597,1,1.0,1.0,1.0,1.0,74.09
2026-01-14 05:31:29.661,,,,,,,,,,,,,,,,,,,,,,,,,,,,,,,,,,,,,,,,,,,,,,,,,,,,,,,,,,/muse/elements/blink
2026-01-14 05:31:29.661,,,,,,,,,,,,,,,,,,,,,,,,,,,,,,,,,,,,,,,,,,,,,,,,,,,,,,,,,,/muse/elements/jaw_clench
2026-01-14 05:31:29.868,,,,,,,,,,,,,,,,,,,,,,,,,,,,,,,,,,,,,,,,,,,,,,,,,,,,,,,,,,/muse/elements/jaw_clench
2026-01-14 05:31:30.271,,,,,,,,,,,,,,,,,,,,,,,,,,,,,,,,,,,,,,,,,,,,,,,,,,,,,,,,,,/muse/elements/jaw_clench
2026-01-14 05:31:30.504,0.22232765,0.0,-0.49610746,-0.013862772,-0.025556609,0.0,0.1436039,0.16546142,0.24452536,0.0,0.6155136,0.5145847,0.9343857,0.0,1.0500807,1.1854433,1.1203706,0.0,1.198258,1.3495331,732.12476,747.34784,739.7363,724.4247,767.3503,770.448,782.7504,1447.8759,-0.41473388671875,-0.06195068359375,0.9327392578125,-0.10467529296875,-0.485992431640625,-1.143951416015625,6.2692930882388005,6.13941015187278,4.928563049853373,4.32455856757981,0.0,0.0,0.0,0.0,0.0,0.0,0.0,0.0,0.0,0.0,0.0,0.0,63.214954,1,1.0,1.0,1.0,1.0,74.09
2026-01-14 05:31:30.889,,,,,,,,,,,,,,,,,,,,,,,,,,,,,,,,,,,,,,,,,,,,,,,,,,,,,,,,,,/muse/elements/jaw_clench
2026-01-14 05:31:31.136,,,,,,,,,,,,,,,,,,,,,,,,,,,,,,,,,,,,,,,,,,,,,,,,,,,,,,,,,,/muse/elements/jaw_clench
2026-01-14 05:31:31.515,0.16683668,0.0,-0.28085124,0.29277262,-0.1825711,0.0,-0.11617856,0.059615076,1.0831128,0.0,0.22845423,0.74675393,0.9749336,0.0,0.8987984,0.89719015,1.029158,0.0,0.9787844,0.851414,735.2225,735.0455,731.59375,732.6558,700.882,682.20715,694.3325,1387.1605,-0.4150390625,-0.06402587890625,0.9322509765625,0.097198486328125,-0.276641845703125,0.16448974609375,6.2615416160026705,6.129400376701714,4.915379443530505,4.311161338006342,0.0,0.0,0.0,0.0,0.0,0.0,0.0,0.0,0.0,0.0,0.0,0.0,63.814014,1,1.0,1.0,1.0,1.0,74.09
2026-01-14 05:31:31.708,,,,,,,,,,,,,,,,,,,,,,,,,,,,,,,,,,,,,,,,,,,,,,,,,,,,,,,,,,/muse/elements/jaw_clench
2026-01-14 05:31:32.395,,,,,,,,,,,,,,,,,,,,,,,,,,,,,,,,,,,,,,,,,,,,,,,,,,,,,,,,,,/muse/elements/jaw_clench
2026-01-14 05:31:32.527,-0.02998222,0.0,-0.28085124,0.29277262,-0.40136778,0.0,-0.11617856,0.059615076,1.0823158,0.0,0.22845423,0.74675393,1.0577369,0.0,0.8987984,0.89719015,1.1159427,0.0,0.9787844,0.851414,728.05347,730.1776,722.9201,716.2821,781.68835,781.68835,787.8838,1377.4248,-0.41583251953125,-0.05889892578125,0.92767333984375,-0.067291259765625,-0.082244873046875,-0.3289794921875,6.286566053930334,6.166753927949837,4.951481772882245,4.359226569391794,0.0,0.0,0.0,0.0,0.0,0.0,0.0,0.0,0.0,0.0,0.0,0.0,63.94534,1,1.0,1.0,1.0,1.0,74.09
2026-01-14 05:31:32.646,,,,,,,,,,,,,,,,,,,,,,,,,,,,,,,,,,,,,,,,,,,,,,,,,,,,,,,,,,/muse/elements/jaw_clench
2026-01-14 05:31:32.874,,,,,,,,,,,,,,,,,,,,,,,,,,,,,,,,,,,,,,,,,,,,,,,,,,,,,,,,,,/muse/elements/jaw_clench
2026-01-14 05:31:32.992,,,,,,,,,,,,,,,,,,,,,,,,,,,,,,,,,,,,,,,,,,,,,,,,,,,,,,,,,,/muse/elements/blink
2026-01-14 05:31:33.127,,,,,,,,,,,,,,,,,,,,,,,,,,,,,,,,,,,,,,,,,,,,,,,,,,,,,,,,,,/muse/elements/jaw_clench
2026-01-14 05:31:33.520,,,,,,,,,,,,,,,,,,,,,,,,,,,,,,,,,,,,,,,,,,,,,,,,,,,,,,,,,,/muse/elements/jaw_clench
2026-01-14 05:31:33.541,-0.117049664,0.0,-0.28085124,0.29277262,0.038009506,0.0,-0.11617856,0.059615076,1.1844927,0.0,0.22845423,0.74675393,0.86740613,0.0,0.8987984,0.89719015,1.0593699,0.0,0.9787844,0.851414,738.58575,745.66626,735.66504,733.36383,767.3503,778.4136,776.46643,1447.5219,-0.420166015625,-0.0587158203125,0.92938232421875,0.097198486328125,-0.321502685546875,0.127105712890625,6.319158858450755,6.222997878072622,4.996220585079751,4.4367107741458645,0.0,0.0,0.0,0.0,0.0,0.0,0.0,0.0,0.0,0.0,0.0,0.0,63.238747,1,1.0,1.0,1.0,1.0,74.07
2026-01-14 05:31:34.157,,,,,,,,,,,,,,,,,,,,,,,,,,,,,,,,,,,,,,,,,,,,,,,,,,,,,,,,,,/muse/elements/jaw_clench
2026-01-14 05:31:34.375,,,,,,,,,,,,,,,,,,,,,,,,,,,,,,,,,,,,,,,,,,,,,,,,,,,,,,,,,,/muse/elements/jaw_clench
2026-01-14 05:31:34.555,0.005207538,0.0,-0.28085124,0.29277262,1.5175127E-4,0.0,-0.11617856,0.059615076,1.1444103,0.0,0.22845423,0.74675393,0.70136184,0.0,0.8987984,0.89719015,0.890666,0.0,0.9787844,0.851414,750.8881,753.10077,748.8525,742.65704,850.01526,835.1462,830.5439,1448.6724,-0.419189453125,-0.0535888671875,0.92547607421875,0.082244873046875,-0.246734619140625,0.0299072265625,6.331121760484467,6.245947118708724,5.013798726843573,4.4652752545120755,0.0,0.0,0.0,0.0,0.0,0.0,0.0,0.0,0.0,0.0,0.0,0.0,63.267334,1,1.0,1.0,1.0,1.0,74.07
2026-01-14 05:31:35.022,,,,,,,,,,,,,,,,,,,,,,,,,,,,,,,,,,,,,,,,,,,,,,,,,,,,,,,,,,/muse/elements/jaw_clench
2026-01-14 05:31:35.562,0.06472179,0.0,-0.77782583,0.29277262,-0.042036183,0.0,0.26310077,0.059615076,0.85183966,0.0,0.3867859,0.74675393,0.4675965,0.0,0.7871263,0.89719015,0.61838424,0.0,0.78519887,0.851414,705.9269,701.9441,696.45667,702.82916,763.89856,765.8457,762.748,1450.0,-0.42254638671875,-0.0606689453125,0.92724609375,0.037384033203125,-0.01495361328125,-0.2392578125,6.3310302076627805,6.24365829816656,5.0128831986267075,4.462528669861479,0.0,0.0,0.0,0.0,0.0,0.0,0.0,0.0,0.0,0.0,0.0,0.0,63.84269,1,1.0,1.0,1.0,1.0,74.07
2026-01-14 05:31:36.575,0.06362967,0.0,0.057300344,0.07466619,0.0025669746,0.0,0.012318795,0.39768246,0.79665095,0.0,0.4242629,1.087884,0.36364767,0.0,0.5181695,0.4289615,0.4952605,0.0,0.57977355,0.60362834,754.6054,760.80084,746.63983,738.67426,797.9735,787.1757,790.18494,1450.0,-0.4268798828125,-0.06268310546875,0.91900634765625,0.6280517578125,0.2093505859375,-0.171966552734375,6.32971795055194,6.2343809455689865,5.012211811267672,4.449528169181985,0.0,0.0,0.0,0.0,0.0,0.0,0.0,0.0,0.0,0.0,0.0,0.0,63.571934,1,1.0,1.0,1.0,1.0,74.07
2026-01-14 05:31:36.618,,,,,,,,,,,,,,,,,,,,,,,,,,,,,,,,,,,,,,,,,,,,,,,,,,,,,,,,,,/muse/elements/jaw_clench
2026-01-14 05:31:36.867,,,,,,,,,,,,,,,,,,,,,,,,,,,,,,,,,,,,,,,,,,,,,,,,,,,,,,,,,,/muse/elements/jaw_clench
2026-01-14 05:31:37.577,0.07408907,0.0,0.0049662935,0.028233647,0.028933423,0.0,-0.2944146,0.1311568,0.7223236,0.0,0.13138255,0.9462752,0.33914885,0.0,0.30270723,0.42000473,0.33270788,0.0,0.4552236,0.56045943,743.8076,751.1536,745.4892,738.3202,782.21936,780.4492,771.77563,1450.0,-0.42633056640625,-0.06060791015625,0.922607421875,0.082244873046875,-1.5252685546875,0.2691650390625,6.320715256419426,6.2061521588822925,4.998600958443602,4.412662899649525,0.0,0.0,0.0,0.0,0.0,0.0,0.0,0.0,0.0,0.0,0.0,0.0,62.830875,1,1.0,1.0,1.0,1.0,74.07
2026-01-14 05:31:38.001,,,,,,,,,,,,,,,,,,,,,,,,,,,,,,,,,,,,,,,,,,,,,,,,,,,,,,,,,,/muse/elements/jaw_clench
2026-01-14 05:31:38.582,0.108811684,0.0,-0.33962288,0.19557679,0.08419191,0.0,-0.18161786,0.27068388,1.1259273,0.0,0.39528444,1.2124927,1.0782083,0.0,0.542982,1.038917,1.120602,0.0,0.58496857,1.12779,706.0154,691.4118,703.89124,709.90967,757.8801,763.98706,769.563,1421.324,-0.41766357421875,-0.0621337890625,0.93115234375,0.19439697265625,-0.979461669921875,-0.949554443359375,6.176733185513673,6.016942994063371,4.792576592041581,4.163669742269271,0.0,0.0,0.0,0.0,0.0,0.0,0.0,0.0,0.0,0.0,0.0,0.0,63.2312,1,1.0,1.0,1.0,1.0,74.07
2026-01-14 05:31:38.635,,,,,,,,,,,,,,,,,,,,,,,,,,,,,,,,,,,,,,,,,,,,,,,,,,,,,,,,,,/muse/elements/jaw_clench
2026-01-14 05:31:38.748,,,,,,,,,,,,,,,,,,,,,,,,,,,,,,,,,,,,,,,,,,,,,,,,,,,,,,,,,,/muse/elements/jaw_clench
2026-01-14 05:31:39.364,,,,,,,,,,,,,,,,,,,,,,,,,,,,,,,,,,,,,,,,,,,,,,,,,,,,,,,,,,/muse/elements/jaw_clench
2026-01-14 05:31:39.591,-0.081548445,0.0,-0.30173963,-0.13330407,0.22286564,0.0,-0.2223647,0.352161,1.1455761,0.0,0.39528444,1.2309393,1.2941923,0.0,0.64709663,1.2680855,1.3279773,0.0,0.63860667,1.3575625,736.7271,718.22925,724.0707,730.5317,834.6152,818.06445,820.2771,1421.9435,-0.42132568359375,-0.06414794921875,0.9302978515625,0.381317138671875,-0.76263427734375,-0.755157470703125,6.1895810981570225,6.030706434923586,4.809483346446368,4.1807901199246595,0.0,0.0,0.0,0.0,0.0,0.0,0.0,0.0,0.0,0.0,0.0,0.0,63.658955,1,1.0,1.0,1.0,1.0,74.04
2026-01-14 05:31:40.386,,,,,,,,,,,,,,,,,,,,,,,,,,,,,,,,,,,,,,,,,,,,,,,,,,,,,,,,,,/muse/elements/jaw_clench
2026-01-14 05:31:40.454,,,,,,,,,,,,,,,,,,,,,,,,,,,,,,,,,,,,,,,,,,,,,,,,,,,,,,,,,,/muse/elements/blink
2026-01-14 05:31:40.605,-0.2334449,0.0,-0.30173963,-0.0636786,0.40436527,0.0,-0.2223647,0.47893336,0.97408015,0.0,0.39528444,1.0389627,1.1921365,0.0,0.64709663,1.0631278,1.2467461,0.0,0.63860667,1.1348245,743.8961,734.4259,726.7259,727.0799,764.96063,794.4332,775.7584,1300.7782,-0.42218017578125,-0.05767822265625,0.92974853515625,0.19439697265625,-0.59814453125,0.127105712890625,6.212835514865413,6.053686193166917,4.843418925684858,4.210972033474,0.0,0.0,0.0,0.0,0.0,0.0,0.0,0.0,0.0,0.0,0.0,0.0,62.903915,1,1.0,1.0,1.0,1.0,74.04
2026-01-14 05:31:40.635,,,,,,,,,,,,,,,,,,,,,,,,,,,,,,,,,,,,,,,,,,,,,,,,,,,,,,,,,,/muse/elements/jaw_clench
2026-01-14 05:31:41.616,-0.12073698,0.3040756,-0.18430007,0.09346235,0.42159328,0.40284172,-0.09228928,0.4792276,1.0035914,0.63324946,0.4982855,1.4351432,1.1931361,1.1396116,1.0855551,1.2479557,1.1863747,1.1412501,1.1625216,1.2946093,725.9293,716.2821,720.88446,725.39825,770.89056,772.6607,780.3607,1449.3805,-0.42584228515625,-0.0579833984375,0.93109130859375,-0.082244873046875,0.0299072265625,0.19439697265625,6.175573516438977,6.01859094485373,4.786228929737978,4.160495911117469,0.0,0.0,0.0,0.0,0.0,0.0,0.0,0.0,0.0,0.0,0.0,0.0,62.125587,1,1.0,1.0,1.0,1.0,74.04
2026-01-14 05:31:41.655,,,,,,,,,,,,,,,,,,,,,,,,,,,,,,,,,,,,,,,,,,,,,,,,,,,,,,,,,,/muse/elements/jaw_clench
2026-01-14 05:31:42.034,,,,,,,,,,,,,,,,,,,,,,,,,,,,,,,,,,,,,,,,,,,,,,,,,,,,,,,,,,/muse/elements/jaw_clench
2026-01-14 05:31:42.252,,,,,,,,,,,,,,,,,,,,,,,,,,,,,,,,,,,,,,,,,,,,,,,,,,,,,,,,,,/muse/elements/blink
2026-01-14 05:31:42.387,,,,,,,,,,,,,,,,,,,,,,,,,,,,,,,,,,,,,,,,,,,,,,,,,,,,,,,,,,/muse/elements/jaw_clench
2026-01-14 05:31:42.634,,,,,,,,,,,,,,,,,,,,,,,,,,,,,,,,,,,,,,,,,,,,,,,,,,,,,,,,,,/muse/elements/jaw_clench
2026-01-14 05:31:42.635,-0.080975145,0.3040756,-0.18699566,0.038131233,0.3944023,0.40284172,-0.068606764,0.44305587,1.0472721,0.63324946,0.4982855,1.1944077,1.1635785,1.1396116,1.1296512,1.2832065,1.2431139,1.1412501,1.2142,1.4330068,723.1856,725.5753,728.67303,733.0098,779.6527,792.4861,759.0307,1292.7241,-0.4227294921875,-0.05902099609375,0.933837890625,0.22430419921875,-0.665435791015625,0.3887939453125,6.187139689578714,6.033941301289846,4.803074648928307,4.179508380421048,0.0,0.0,0.0,0.0,0.0,0.0,0.0,0.0,0.0,0.0,0.0,0.0,63.3203,1,1.0,1.0,1.0,1.0,74.04
2026-01-14 05:31:43.197,,,,,,,,,,,,,,,,,,,,,,,,,,,,,,,,,,,,,,,,,,,,,,,,,,,,,,,,,,/muse/elements/jaw_clench
2026-01-14 05:31:43.506,,,,,,,,,,,,,,,,,,,,,,,,,,,,,,,,,,,,,,,,,,,,,,,,,,,,,,,,,,/muse/elements/jaw_clench
2026-01-14 05:31:43.636,0.040176615,0.3040756,-0.18699566,0.036286883,0.29534334,0.40284172,-0.068606764,0.42129517,0.8182194,0.63324946,0.4982855,0.9579299,1.3463515,1.1396116,1.1296512,1.4168211,1.4486965,1.1412501,1.2142,1.5743738,718.6718,709.4671,717.60974,726.0178,790.539,784.52057,787.9723,1412.3848,-0.423095703125,-0.058349609375,0.9268798828125,0.5682373046875,-1.00189208984375,0.04486083984375,6.188909710797987,6.036596333118756,4.807652290012636,4.183231528502969,0.0,0.0,0.0,0.0,0.0,0.0,0.0,0.0,0.0,0.0,0.0,0.0,64.42468,1,1.0,1.0,1.0,1.0,74.04
2026-01-14 05:31:43.899,,,,,,,,,,,,,,,,,,,,,,,,,,,,,,,,,,,,,,,,,,,,,,,,,,,,,,,,,,/muse/elements/jaw_clench
2026-01-14 05:31:44.119,,,,,,,,,,,,,,,,,,,,,,,,,,,,,,,,,,,,,,,,,,,,,,,,,,,,,,,,,,/muse/elements/jaw_clench
2026-01-14 05:31:44.379,,,,,,,,,,,,,,,,,,,,,,,,,,,,,,,,,,,,,,,,,,,,,,,,,,,,,,,,,,/muse/elements/jaw_clench
2026-01-14 05:31:44.496,,,,,,,,,,,,,,,,,,,,,,,,,,,,,,,,,,,,,,,,,,,,,,,,,,,,,,,,,,/muse/elements/blink
2026-01-14 05:31:44.642,,,,,,,,,,,,,,,,,,,,,,,,,,,,,,,,,,,,,,,,,,,,,,,,,,,,,,,,,,/muse/elements/jaw_clench
2026-01-14 05:31:44.644,0.30620667,0.3040756,-0.57512784,-0.15714812,0.23812184,0.40284172,0.12488802,0.33514345,1.0179753,0.63324946,0.6248596,0.9497591,1.4727645,1.1396116,1.357767,1.4559922,1.4072498,1.1412501,1.4016732,1.6053578,725.6638,721.94653,719.9994,736.01904,782.8389,776.1124,766.6423,1450.0,-0.4215087890625,-0.050048828125,0.92645263671875,-0.082244873046875,-0.19439697265625,0.097198486328125,6.20166607061965,6.051153231766921,4.826634241708986,4.201938821734259,0.0,0.0,0.0,0.0,0.0,0.0,0.0,0.0,0.0,0.0,0.0,0.0,63.615807,1,1.0,1.0,1.0,1.0,74.02
2026-01-14 05:31:44.874,,,,,,,,,,,,,,,,,,,,,,,,,,,,,,,,,,,,,,,,,,,,,,,,,,,,,,,,,,/muse/elements/jaw_clench
2026-01-14 05:31:45.119,,,,,,,,,,,,,,,,,,,,,,,,,,,,,,,,,,,,,,,,,,,,,,,,,,,,,,,,,,/muse/elements/jaw_clench
2026-01-14 05:31:45.258,,,,,,,,,,,,,,,,,,,,,,,,,,,,,,,,,,,,,,,,,,,,,,,,,,,,,,,,,,/muse/elements/jaw_clench
2026-01-14 05:31:45.612,,,,,,,,,,,,,,,,,,,,,,,,,,,,,,,,,,,,,,,,,,,,,,,,,,,,,,,,,,/muse/elements/jaw_clench
2026-01-14 05:31:45.659,0.2908638,0.3040756,-0.57512784,0.14181775,0.27482572,0.40284172,0.12488802,0.3046369,1.1999234,0.63324946,0.6248596,1.207119,1.4554073,1.1396116,1.357767,1.2420938,1.3894968,1.1412501,1.4016732,1.2388209,726.6374,719.1143,717.87524,723.1856,747.7904,748.4984,724.69025,1372.0259,-0.4239501953125,-0.05450439453125,0.92437744140625,-0.067291259765625,-0.560760498046875,-0.3887939453125,6.229833822091886,6.0841122475740885,4.868870610113726,4.246677633931765,0.0,0.0,0.0,0.0,0.0,0.0,0.0,0.0,0.0,0.0,0.0,0.0,62.914276,1,1.0,1.0,1.0,1.0,74.02
2026-01-14 05:31:45.853,,,,,,,,,,,,,,,,,,,,,,,,,,,,,,,,,,,,,,,,,,,,,,,,,,,,,,,,,,/muse/elements/jaw_clench
2026-01-14 05:31:46.144,,,,,,,,,,,,,,,,,,,,,,,,,,,,,,,,,,,,,,,,,,,,,,,,,,,,,,,,,,/muse/elements/jaw_clench
2026-01-14 05:31:46.671,-0.14952193,0.3040756,-0.57512784,-0.23340115,0.29117143,0.40284172,0.12488802,0.48868892,0.8860327,0.63324946,0.6248596,1.0746061,1.131653,1.1396116,1.357767,1.0895752,1.2573594,1.1412501,1.4016732,1.254186,724.1592,727.2569,724.60175,711.5028,742.92255,748.2329,732.8328,1240.5054,-0.42193603515625,-0.06353759765625,0.92669677734375,0.11962890625,-0.456085205078125,0.10467529296875,6.232824547600314,6.091222850058412,4.874760508308896,4.2552225639558445,0.0,0.0,0.0,0.0,0.0,0.0,0.0,0.0,0.0,0.0,0.0,0.0,63.707916,1,1.0,1.0,1.0,1.0,74.02
2026-01-14 05:31:46.886,,,,,,,,,,,,,,,,,,,,,,,,,,,,,,,,,,,,,,,,,,,,,,,,,,,,,,,,,,/muse/elements/jaw_clench
2026-01-14 05:31:47.371,,,,,,,,,,,,,,,,,,,,,,,,,,,,,,,,,,,,,,,,,,,,,,,,,,,,,,,,,,/muse/elements/jaw_clench
2026-01-14 05:31:47.679,0.017986307,0.3040756,-0.57512784,0.012740356,0.38408053,0.40284172,0.12488802,0.44357678,0.93972546,0.63324946,0.6248596,0.9298965,0.9062747,1.1396116,1.357767,0.94026935,1.0158874,1.1412501,1.4016732,1.0710459,723.0971,727.52246,727.61096,713.0959,724.3362,726.7259,688.3141,1029.2407,-0.421630859375,-0.05718994140625,0.923828125,-0.007476806640625,-0.456085205078125,-0.560760498046875,6.246496435638843,6.107549769925852,4.891606227499225,4.272403976825692,0.0,0.0,0.0,0.0,0.0,0.0,0.0,0.0,0.0,0.0,0.0,0.0,64.13986,1,1.0,1.0,1.0,1.0,74.02
2026-01-14 05:31:47.845,,,,,,,,,,,,,,,,,,,,,,,,,,,,,,,,,,,,,,,,,,,,,,,,,,,,,,,,,,/muse/elements/jaw_clench
2026-01-14 05:31:48.255,,,,,,,,,,,,,,,,,,,,,,,,,,,,,,,,,,,,,,,,,,,,,,,,,,,,,,,,,,/muse/elements/jaw_clench
2026-01-14 05:31:48.484,,,,,,,,,,,,,,,,,,,,,,,,,,,,,,,,,,,,,,,,,,,,,,,,,,,,,,,,,,/muse/elements/jaw_clench
2026-01-14 05:31:48.684,0.09728308,0.3040756,-0.57512784,-0.045837637,0.25279117,0.40284172,0.12488802,0.54315794,0.9462984,0.63324946,0.6248596,0.91700697,0.8560739,1.1396116,1.357767,1.1262199,0.8820258,1.1412501,1.4016732,1.2181478,740.9754,729.9121,737.5237,749.472,563.69714,552.3683,544.4027,874.089,-0.42254638671875,-0.06201171875,0.927978515625,0.1495361328125,-0.25421142578125,0.2691650390625,6.312444984860406,6.210455141501562,4.98743151419784,4.411137019288081,0.0,0.0,0.0,0.0,0.0,0.0,0.0,0.0,0.0,0.0,0.0,0.0,62.891304,1,1.0,1.0,1.0,1.0,74.02
2026-01-14 05:31:49.084,,,,,,,,,,,,,,,,,,,,,,,,,,,,,,,,,,,,,,,,,,,,,,,,,,,,,,,,,,/muse/elements/jaw_clench
2026-01-14 05:31:49.384,,,,,,,,,,,,,,,,,,,,,,,,,,,,,,,,,,,,,,,,,,,,,,,,,,,,,,,,,,/muse/elements/jaw_clench
2026-01-14 05:31:49.600,,,,,,,,,,,,,,,,,,,,,,,,,,,,,,,,,,,,,,,,,,,,,,,,,,,,,,,,,,/muse/elements/jaw_clench
2026-01-14 05:31:49.695,-0.15808354,0.071557775,0.040652484,-0.24944133,-0.15044494,-0.20731322,-0.43590415,0.05616312,0.9128142,0.26520848,0.10246755,0.93686336,0.63588995,0.5625433,0.46166152,0.692806,0.6152238,0.5881586,0.52817845,0.64709085,741.2409,728.05347,729.46954,728.85004,771.06757,765.49164,759.65027,1450.0,-0.4273681640625,-0.06756591796875,0.928466796875,0.76263427734375,-0.112152099609375,0.13458251953125,6.331060725270009,6.242223970626803,5.012974751448394,4.453068211620533,0.0,0.0,0.0,0.0,0.0,0.0,0.0,0.0,0.0,0.0,0.0,0.0,62.517624,1,1.0,1.0,1.0,1.0,74.02
2026-01-14 05:31:50.136,,,,,,,,,,,,,,,,,,,,,,,,,,,,,,,,,,,,,,,,,,,,,,,,,,,,,,,,,,/muse/elements/jaw_clench
2026-01-14 05:31:50.697,-0.15246865,0.071557775,0.111155644,-0.15542771,-0.57994705,-0.20731322,-0.44836938,0.09950749,0.5369859,0.26520848,0.048564028,0.9096555,0.45263934,0.5625433,0.38155186,0.69578934,0.55658835,0.5881586,0.45910585,0.6319861,746.02026,735.488,736.46155,728.58453,497.31735,467.6677,490.85638,552.3683,-0.42608642578125,-0.07421875,0.92462158203125,0.590667724609375,-0.0299072265625,-0.665435791015625,6.340032901795293,6.2550108480556945,5.020543118041151,4.468937367379539,0.0,0.0,0.0,0.0,0.0,0.0,0.0,0.0,0.0,0.0,0.0,0.0,63.71973,1,1.0,1.0,1.0,1.0,74.00
2026-01-14 05:31:51.709,0.073469,-0.17598523,0.36991477,-0.15542771,-0.37917876,-0.26716405,-0.2993202,0.09950749,0.2923053,-0.018570568,-0.30007547,0.9096555,0.23707333,0.34151143,-0.03104113,0.69578934,0.33124536,0.4769129,0.27064425,0.6319861,735.3995,729.9121,724.4247,720.79596,751.8617,759.56177,730.7972,1220.8569,-0.42254638671875,-0.06219482421875,0.9228515625,0.01495361328125,-1.487884521484375,0.67291259765625,6.322546312853158,6.213598455046134,5.000126838805045,4.412571346827837,0.0,0.0,0.0,0.0,0.0,0.0,0.0,0.0,0.0,0.0,0.0,0.0,64.87449,1,1.0,1.0,1.0,1.0,74.00
2026-01-14 05:31:52.112,,,,,,,,,,,,,,,,,,,,,,,,,,,,,,,,,,,,,,,,,,,,,,,,,,,,,,,,,,/muse/elements/blink
2026-01-14 05:31:52.241,,,,,,,,,,,,,,,,,,,,,,,,,,,,,,,,,,,,,,,,,,,,,,,,,,,,,,,,,,/muse/elements/jaw_clench
2026-01-14 05:31:52.497,,,,,,,,,,,,,,,,,,,,,,,,,,,,,,,,,,,,,,,,,,,,,,,,,,,,,,,,,,/muse/elements/jaw_clench
2026-01-14 05:31:52.725,0.017327998,0.08625531,0.021011971,0.008773918,-0.25749832,-0.25591314,0.018551245,0.22788322,1.0585938,-0.11083702,0.93641627,1.0401887,0.9713284,0.29833463,0.86951035,1.298391,0.9741064,0.30403015,0.8681819,1.2138897,734.51447,730.7087,721.23846,725.7523,541.83606,528.20605,550.8637,597.5066,-0.41595458984375,-0.05950927734375,0.928955078125,0.246734619140625,-1.278533935546875,0.64300537109375,6.2555296473785855,6.101507283694538,4.905766397253416,4.268497723100398,0.0,0.0,0.0,0.0,0.0,0.0,0.0,0.0,0.0,0.0,0.0,0.0,64.48245,1,1.0,1.0,1.0,1.0,74.00
2026-01-14 05:31:52.745,,,,,,,,,,,,,,,,,,,,,,,,,,,,,,,,,,,,,,,,,,,,,,,,,,,,,,,,,,/muse/elements/jaw_clench
2026-01-14 05:31:52.773,,,,,,,,,,,,,,,,,,,,,,,,,,,,,,,,,,,,,,,,,,,,,,,,,,,,,,,,,,/muse/elements/blink
2026-01-14 05:31:53.743,-0.14016484,0.17936598,-0.21944876,-0.42687958,0.15599118,-0.19163017,0.31029546,0.2192325,1.1239518,-0.16401158,0.97510797,1.0700481,1.3310739,0.3244828,1.2621993,1.40214,1.3296993,0.24701154,1.2874047,1.3623294,704.24524,703.44867,705.6614,708.405,753.4548,749.118,763.279,1290.3345,-0.42132568359375,-0.05950927734375,0.92431640625,0.2093505859375,0.1495361328125,0.411224365234375,6.205755429988318,6.047521636506688,4.830052213718618,4.195835300288487,0.0,0.0,0.0,0.0,0.0,0.0,0.0,0.0,0.0,0.0,0.0,0.0,63.89414,1,1.0,1.0,1.0,1.0,74.00
2026-01-14 05:31:54.263,,,,,,,,,,,,,,,,,,,,,,,,,,,,,,,,,,,,,,,,,,,,,,,,,,,,,,,,,,/muse/elements/jaw_clench
2026-01-14 05:31:54.485,,,,,,,,,,,,,,,,,,,,,,,,,,,,,,,,,,,,,,,,,,,,,,,,,,,,,,,,,,/muse/elements/jaw_clench
2026-01-14 05:31:54.752,-0.30462357,0.17936598,-0.28383854,-0.30982307,0.18801126,-0.19163017,0.18758178,0.29635867,0.82079315,-0.16401158,0.7721431,1.0629321,1.1440241,0.3244828,1.110764,1.2604299,1.1326773,0.24701154,1.1327875,1.3122617,715.22003,709.82117,717.96375,717.52124,752.4812,736.7271,735.66504,1380.8765,-0.42205810546875,-0.06005859375,0.92840576171875,0.007476806640625,0.112152099609375,0.478515625,6.189275922084734,6.031316787068164,4.8042343180030045,4.171878978613833,0.0,0.0,0.0,0.0,0.0,0.0,0.0,0.0,0.0,0.0,0.0,0.0,63.874634,1,1.0,1.0,1.0,1.0,74.00
2026-01-14 05:31:55.024,,,,,,,,,,,,,,,,,,,,,,,,,,,,,,,,,,,,,,,,,,,,,,,,,,,,,,,,,,/muse/elements/jaw_clench
2026-01-14 05:31:55.751,,,,,,,,,,,,,,,,,,,,,,,,,,,,,,,,,,,,,,,,,,,,,,,,,,,,,,,,,,/muse/elements/jaw_clench
2026-01-14 05:31:55.763,-0.1967261,0.17936598,-0.5749715,-0.05581373,0.41183522,-0.19163017,0.08398189,0.5062474,0.6953989,-0.16401158,0.6499671,1.2137208,1.1940901,0.3244828,1.1829046,1.5536563,1.2191855,0.24701154,1.2278037,1.5543596,742.65704,758.41113,748.3214,736.8156,593.08124,590.6916,587.5939,948.4343,-0.41839599609375,-0.05731201171875,0.92938232421875,-0.0299072265625,-0.022430419921875,0.426177978515625,6.216009346017214,6.058996256824738,4.843540996113774,4.208194931216174,0.0,0.0,0.0,0.0,0.0,0.0,0.0,0.0,0.0,0.0,0.0,0.0,63.375557,1,1.0,1.0,1.0,1.0,73.98
2026-01-14 05:31:56.120,,,,,,,,,,,,,,,,,,,,,,,,,,,,,,,,,,,,,,,,,,,,,,,,,,,,,,,,,,/muse/elements/jaw_clench
2026-01-14 05:31:56.519,,,,,,,,,,,,,,,,,,,,,,,,,,,,,,,,,,,,,,,,,,,,,,,,,,,,,,,,,,/muse/elements/jaw_clench
2026-01-14 05:31:56.771,0.03638595,0.17936598,-0.5749715,-0.028667029,0.36181566,-0.19163017,0.08398189,0.19495818,1.0425034,-0.16401158,0.6499671,1.1610957,1.2580656,0.3244828,1.1829046,1.343254,1.3135353,0.24701154,1.2278037,1.397852,735.84204,745.57776,739.5593,736.01904,764.7836,764.7836,757.8801,1311.6646,-0.41998291015625,-0.0535888671875,0.92822265625,-0.11962890625,0.112152099609375,0.291595458984375,6.215185370622034,6.061254559759674,4.840672341034261,4.209324082683642,0.0,0.0,0.0,0.0,0.0,0.0,0.0,0.0,0.0,0.0,0.0,0.0,61.97294,1,1.0,1.0,1.0,1.0,73.98
2026-01-14 05:31:57.361,,,,,,,,,,,,,,,,,,,,,,,,,,,,,,,,,,,,,,,,,,,,,,,,,,,,,,,,,,/muse/elements/jaw_clench
2026-01-14 05:31:57.776,-0.62933624,0.17936598,-0.5749715,-0.113502905,0.263078,-0.19163017,0.08398189,0.26875997,1.0926137,-0.16401158,0.6499671,1.1646864,1.3959117,0.3244828,1.1829046,1.5121343,1.3653582,0.24701154,1.2278037,1.4729947,728.76154,725.6638,730.7972,726.4603,763.456,758.0571,744.8697,1217.1398,-0.425048828125,-0.058837890625,0.93304443359375,0.052337646484375,0.0299072265625,0.40374755859375,6.195379443530506,6.039312400162125,4.812474071954796,4.1825601411439335,0.0,0.0,0.0,0.0,0.0,0.0,0.0,0.0,0.0,0.0,0.0,0.0,60.855362,1,1.0,1.0,1.0,1.0,73.98
2026-01-14 05:31:57.980,,,,,,,,,,,,,,,,,,,,,,,,,,,,,,,,,,,,,,,,,,,,,,,,,,,,,,,,,,/muse/elements/jaw_clench
2026-01-14 05:31:58.222,,,,,,,,,,,,,,,,,,,,,,,,,,,,,,,,,,,,,,,,,,,,,,,,,,,,,,,,,,/muse/elements/jaw_clench
2026-01-14 05:31:58.493,,,,,,,,,,,,,,,,,,,,,,,,,,,,,,,,,,,,,,,,,,,,,,,,,,,,,,,,,,/muse/elements/jaw_clench
2026-01-14 05:31:58.741,,,,,,,,,,,,,,,,,,,,,,,,,,,,,,,,,,,,,,,,,,,,,,,,,,,,,,,,,,/muse/elements/jaw_clench
2026-01-14 05:31:58.783,-0.4372247,0.17936598,-0.5749715,-0.33453232,0.10920576,-0.19163017,0.08398189,0.19676796,1.0539814,-0.16401158,0.6499671,1.1518362,1.3841207,0.3244828,1.1829046,1.5130938,1.3595549,0.24701154,1.2278037,1.5142766,733.2753,730.2661,723.4511,735.84204,793.5482,795.58386,817.79895,1450.0,-0.41766357421875,-0.05609130859375,0.9305419921875,0.216827392578125,0.1495361328125,0.52337646484375,6.192480270843764,6.036291157046468,4.809513864053597,4.177646806380087,0.0,0.0,0.0,0.0,0.0,0.0,0.0,0.0,0.0,0.0,0.0,0.0,60.837883,1,1.0,1.0,1.0,1.0,73.98
2026-01-14 05:31:59.027,,,,,,,,,,,,,,,,,,,,,,,,,,,,,,,,,,,,,,,,,,,,,,,,,,,,,,,,,,/muse/elements/jaw_clench
2026-01-14 05:31:59.260,,,,,,,,,,,,,,,,,,,,,,,,,,,,,,,,,,,,,,,,,,,,,,,,,,,,,,,,,,/muse/elements/jaw_clench
2026-01-14 05:31:59.405,,,,,,,,,,,,,,,,,,,,,,,,,,,,,,,,,,,,,,,,,,,,,,,,,,,,,,,,,,/muse/elements/jaw_clench
2026-01-14 05:31:59.776,,,,,,,,,,,,,,,,,,,,,,,,,,,,,,,,,,,,,,,,,,,,,,,,,,,,,,,,,,/muse/elements/jaw_clench
2026-01-14 05:31:59.787,-0.1417306,0.17936598,-0.28582248,-0.114290155,0.16175367,-0.19163017,-0.41834828,0.25410202,0.7603917,-0.16401158,0.164718,1.0309687,0.94951576,0.3244828,0.50676274,0.995513,0.9841779,0.24701154,0.688211,1.0857868,747.6134,746.72833,737.3466,743.5421,765.13763,765.31464,746.55133,1183.5958,-0.41900634765625,-0.05560302734375,0.927490234375,0.097198486328125,-0.246734619140625,0.276641845703125,6.2176267792003435,6.061346112581361,4.84738621462461,4.213352406837851,0.0,0.0,0.0,0.0,0.0,0.0,0.0,0.0,0.0,0.0,0.0,0.0,60.891624,1,1.0,1.0,1.0,1.0,73.98
2026-01-14 05:31:59.908,,,,,,,,,,,,,,,,,,,,,,,,,,,,,,,,,,,,,,,,,,,,,,,,,,,,,,,,,,/muse/elements/jaw_clench
2026-01-14 05:32:00.228,,,,,,,,,,,,,,,,,,,,,,,,,,,,,,,,,,,,,,,,,,,,,,,,,,,,,,,,,,/muse/elements/jaw_clench
2026-01-14 05:32:00.386,,,,,,,,,,,,,,,,,,,,,,,,,,,,,,,,,,,,,,,,,,,,,,,,,,,,,,,,,,/muse/elements/jaw_clench
2026-01-14 05:32:00.506,,,,,,,,,,,,,,,,,,,,,,,,,,,,,,,,,,,,,,,,,,,,,,,,,,,,,,,,,,/muse/elements/blink
2026-01-14 05:32:00.738,,,,,,,,,,,,,,,,,,,,,,,,,,,,,,,,,,,,,,,,,,,,,,,,,,,,,,,,,,/muse/elements/jaw_clench
2026-01-14 05:32:00.788,0.39768642,0.17936598,-0.29128388,0.019892681,0.009712455,-0.19163017,-0.49515674,0.21732973,0.646975,-0.16401158,0.033018254,0.7392903,0.92990845,0.3244828,0.44569635,0.8251075,0.9638331,0.24701154,0.6700526,1.0138497,749.295,752.3927,736.5501,736.9041,748.6755,745.3122,731.94775,1344.2349,-0.4215087890625,-0.0555419921875,0.9248046875,0.179443359375,-0.112152099609375,-0.13458251953125,6.221777173783468,6.073583673080132,4.851231433135446,4.226261354695659,0.0,0.0,0.0,0.0,0.0,0.0,0.0,0.0,0.0,0.0,0.0,0.0,60.30385,1,1.0,1.0,1.0,1.0,73.98
2026-01-14 05:32:01.354,,,,,,,,,,,,,,,,,,,,,,,,,,,,,,,,,,,,,,,,,,,,,,,,,,,,,,,,,,/muse/elements/jaw_clench
2026-01-14 05:32:01.508,,,,,,,,,,,,,,,,,,,,,,,,,,,,,,,,,,,,,,,,,,,,,,,,,,,,,,,,,,/muse/elements/jaw_clench
2026-01-14 05:32:01.802,0.12121534,0.17936598,-0.17357132,0.22960669,0.40921408,-0.19163017,-0.36648476,0.21698141,0.88818246,-0.16401158,0.6912707,0.797791,1.1420507,0.3244828,0.7952274,1.1441827,1.2247995,0.24701154,0.9240995,1.2607785,764.6951,739.9133,747.34784,748.3214,745.1352,749.472,771.06757,1326.7106,-0.42132568359375,-0.0592041015625,0.9248046875,0.052337646484375,-0.73272705078125,-0.0897216796875,6.198522757075078,6.044408840569344,4.817814653219846,4.188846768233078,0.0,0.0,0.0,0.0,0.0,0.0,0.0,0.0,0.0,0.0,0.0,0.0,60.577232,1,1.0,1.0,1.0,1.0,73.96
2026-01-14 05:32:01.860,,,,,,,,,,,,,,,,,,,,,,,,,,,,,,,,,,,,,,,,,,,,,,,,,,,,,,,,,,/muse/elements/jaw_clench
2026-01-14 05:32:02.251,,,,,,,,,,,,,,,,,,,,,,,,,,,,,,,,,,,,,,,,,,,,,,,,,,,,,,,,,,/muse/elements/jaw_clench
2026-01-14 05:32:02.469,,,,,,,,,,,,,,,,,,,,,,,,,,,,,,,,,,,,,,,,,,,,,,,,,,,,,,,,,,/muse/elements/jaw_clench
2026-01-14 05:32:02.815,-0.5164185,0.17936598,-0.17357132,0.36142337,0.044357423,-0.19163017,-0.36648476,0.19422427,0.61501795,-0.16401158,0.6912707,0.49357778,0.83889896,0.3244828,0.7952274,1.0351036,0.90115726,0.24701154,0.9240995,1.1193051,746.46277,718.8488,745.1352,738.67426,757.7916,748.587,736.5501,1238.9122,-0.420654296875,-0.055908203125,0.928466796875,0.2392578125,-0.874786376953125,0.261688232421875,6.1886960875473855,6.031866103998284,4.804264835610233,4.171268626469256,0.0,0.0,0.0,0.0,0.0,0.0,0.0,0.0,0.0,0.0,0.0,0.0,62.099445,1,1.0,1.0,1.0,1.0,73.96
2026-01-14 05:32:02.882,,,,,,,,,,,,,,,,,,,,,,,,,,,,,,,,,,,,,,,,,,,,,,,,,,,,,,,,,,/muse/elements/jaw_clench
2026-01-14 05:32:03.115,,,,,,,,,,,,,,,,,,,,,,,,,,,,,,,,,,,,,,,,,,,,,,,,,,,,,,,,,,/muse/elements/jaw_clench
2026-01-14 05:32:03.388,,,,,,,,,,,,,,,,,,,,,,,,,,,,,,,,,,,,,,,,,,,,,,,,,,,,,,,,,,/muse/elements/jaw_clench
2026-01-14 05:32:03.746,,,,,,,,,,,,,,,,,,,,,,,,,,,,,,,,,,,,,,,,,,,,,,,,,,,,,,,,,,/muse/elements/jaw_clench
2026-01-14 05:32:03.828,-0.38997346,0.17936598,-0.5433726,-0.16049501,-0.01547832,-0.19163017,-0.13047677,-0.19173737,0.44519883,-0.16401158,0.36714807,0.034500703,0.8036208,0.3244828,0.8182105,0.6406605,0.8651701,0.24701154,0.94842434,0.8700345,715.043,714.512,711.32574,718.9373,759.1192,769.1204,748.941,1126.7747,-0.4171142578125,-0.0557861328125,0.92919921875,0.456085205078125,-0.67291259765625,0.037384033203125,6.193609422311232,6.036382709868154,4.809819040125885,4.176609207734306,0.0,0.0,0.0,0.0,0.0,0.0,0.0,0.0,0.0,0.0,0.0,0.0,62.533493,1,1.0,1.0,1.0,1.0,73.96
2026-01-14 05:32:03.863,,,,,,,,,,,,,,,,,,,,,,,,,,,,,,,,,,,,,,,,,,,,,,,,,,,,,,,,,,/muse/elements/blink
2026-01-14 05:32:03.984,,,,,,,,,,,,,,,,,,,,,,,,,,,,,,,,,,,,,,,,,,,,,,,,,,,,,,,,,,/muse/elements/jaw_clench
2026-01-14 05:32:04.611,,,,,,,,,,,,,,,,,,,,,,,,,,,,,,,,,,,,,,,,,,,,,,,,,,,,,,,,,,/muse/elements/jaw_clench
2026-01-14 05:32:04.839,0.33611622,0.17936598,-0.4368018,0.08387589,0.1910944,-0.19163017,-0.30445093,0.17604807,0.5759521,-0.16401158,0.42684436,0.57161045,0.784696,0.3244828,0.7334397,0.6389741,0.69708824,0.24701154,0.8431624,0.77612555,717.2557,688.2256,712.5649,717.2557,773.1917,781.0688,804.7885,1450.0,-0.4154052734375,-0.05517578125,0.92828369140625,-0.07476806640625,-0.560760498046875,0.299072265625,6.201910211477482,6.0469112843621105,4.823826621843931,4.189243497127054,0.0,0.0,0.0,0.0,0.0,0.0,0.0,0.0,0.0,0.0,0.0,0.0,62.087677,1,1.0,1.0,1.0,1.0,73.96
2026-01-14 05:32:05.496,,,,,,,,,,,,,,,,,,,,,,,,,,,,,,,,,,,,,,,,,,,,,,,,,,,,,,,,,,/muse/elements/jaw_clench
2026-01-14 05:32:05.757,,,,,,,,,,,,,,,,,,,,,,,,,,,,,,,,,,,,,,,,,,,,,,,,,,,,,,,,,,/muse/elements/jaw_clench
2026-01-14 05:32:05.847,0.33611622,0.17936598,-0.41280448,0.08387589,0.1910944,-0.19163017,-0.677362,0.17604807,0.5759521,-0.16401158,-0.010667952,0.57161045,0.784696,0.3244828,0.5278918,0.6389741,0.69708824,0.24701154,0.6123786,0.77612555,731.0627,723.2741,730.6202,724.3362,753.2778,761.24335,758.1456,1276.3505,-0.4156494140625,-0.06097412109375,0.92681884765625,0.0897216796875,-0.179443359375,0.426177978515625,6.245580907421977,6.099615192046349,4.888951195670314,4.258793124001621,0.0,0.0,0.0,0.0,0.0,0.0,0.0,0.0,0.0,0.0,0.0,0.0,63.16131,1,1.0,1.0,1.0,1.0,73.96
2026-01-14 05:32:06.852,0.33611622,0.17936598,-0.08513134,0.08387589,0.1910944,-0.19163017,0.06444698,0.17604807,0.5759521,-0.16401158,0.47316924,0.57161045,0.784696,0.3244828,1.1740807,0.6389741,0.69708824,0.24701154,1.1460809,0.77612555,720.0879,723.3626,727.69946,719.6454,520.152,499.88403,543.42914,529.4451,-0.41595458984375,-0.061767578125,0.9278564453125,0.16448974609375,-0.49346923828125,-0.2392578125,6.228948811482249,6.079900817776506,4.8643845218510835,4.230808478172758,0.0,0.0,0.0,0.0,0.0,0.0,0.0,0.0,0.0,0.0,0.0,0.0,64.15727,1,2.0,1.0,1.0,2.0,73.96
2026-01-14 05:32:07.855,0.33611622,0.17936598,-0.36496797,0.08387589,0.1910944,-0.19163017,-0.0947779,0.17604807,0.5759521,-0.16401158,0.64152986,0.57161045,0.784696,0.3244828,1.0111715,0.6389741,0.69708824,0.24701154,0.9485591,0.77612555,749.82605,703.00616,743.27655,744.8697,751.4191,751.3306,754.9594,1293.0782,-0.416259765625,-0.05596923828125,0.92919921875,0.276641845703125,-0.418701171875,0.3887939453125,6.279699592303841,6.147558353002885,4.940068187778652,4.319553679994278,0.0,0.0,0.0,0.0,0.0,0.0,0.0,0.0,0.0,0.0,0.0,0.0,63.56533,1,2.0,1.0,1.0,2.0,73.94
2026-01-14 05:32:08.871,-0.18667792,0.17936598,-0.14324546,-0.13304186,0.3505869,-0.19163017,0.10264211,0.07708552,0.8933655,-0.16401158,0.94058996,1.0529741,1.2466446,0.3244828,1.1736952,1.287857,1.202998,0.24701154,1.1433574,1.2354716,738.67426,742.2145,735.93054,736.5501,754.07434,758.8537,758.23413,1243.0721,-0.4190673828125,-0.06292724609375,0.92657470703125,0.3887939453125,0.082244873046875,-0.112152099609375,6.324407886894118,6.225500321865389,4.998234747156856,4.4197735021338485,0.0,0.0,0.0,0.0,0.0,0.0,0.0,0.0,0.0,0.0,0.0,0.0,62.84347,1,1.0,1.0,1.0,1.0,73.94
2026-01-14 05:32:09.615,,,,,,,,,,,,,,,,,,,,,,,,,,,,,,,,,,,,,,,,,,,,,,,,,,,,,,,,,,/muse/elements/jaw_clench
2026-01-14 05:32:09.758,,,,,,,,,,,,,,,,,,,,,,,,,,,,,,,,,,,,,,,,,,,,,,,,,,,,,,,,,,/muse/elements/jaw_clench
2026-01-14 05:32:09.879,-0.010269305,0.17936598,-0.20443371,-0.044362504,0.11903137,-0.19163017,-0.11175467,-0.044567898,0.5587422,-0.16401158,0.72194237,0.78388697,1.0627717,0.3244828,1.0667264,1.1076794,1.020768,0.24701154,1.0290375,1.1416231,729.9121,737.3466,727.87646,732.12476,632.46655,619.6332,622.1998,1047.827,-0.41424560546875,-0.05450439453125,0.925048828125,0.022430419921875,-0.755157470703125,0.8074951171875,6.317907636554372,6.210668764752164,4.992344848961686,4.401737596261593,0.0,0.0,0.0,0.0,0.0,0.0,0.0,0.0,0.0,0.0,0.0,0.0,63.684723,1,1.0,1.0,1.0,1.0,73.94
2026-01-14 05:32:10.116,,,,,,,,,,,,,,,,,,,,,,,,,,,,,,,,,,,,,,,,,,,,,,,,,,,,,,,,,,/muse/elements/jaw_clench
2026-01-14 05:32:10.763,,,,,,,,,,,,,,,,,,,,,,,,,,,,,,,,,,,,,,,,,,,,,,,,,,,,,,,,,,/muse/elements/jaw_clench
2026-01-14 05:32:10.890,-0.010269305,0.17936598,-0.53813803,0.16971046,0.11903137,-0.19163017,0.113132715,0.19319582,0.5587422,-0.16401158,0.7635953,0.733747,1.0627717,0.3244828,1.1968325,1.0963377,1.020768,0.24701154,1.1646963,1.1742294,738.67426,744.3386,731.68225,735.488,749.3835,754.7824,765.04913,1331.5785,-0.4141845703125,-0.04608154296875,0.932861328125,0.19439697265625,-1.48040771484375,0.657958984375,6.222021314641299,6.056524330639201,4.848667954128222,4.198337744081253,0.0,0.0,0.0,0.0,0.0,0.0,0.0,0.0,0.0,0.0,0.0,0.0,65.18675,1,1.0,1.0,1.0,1.0,73.94
2026-01-14 05:32:10.980,,,,,,,,,,,,,,,,,,,,,,,,,,,,,,,,,,,,,,,,,,,,,,,,,,,,,,,,,,/muse/elements/jaw_clench
2026-01-14 05:32:11.258,,,,,,,,,,,,,,,,,,,,,,,,,,,,,,,,,,,,,,,,,,,,,,,,,,,,,,,,,,/muse/elements/blink
2026-01-14 05:32:11.877,,,,,,,,,,,,,,,,,,,,,,,,,,,,,,,,,,,,,,,,,,,,,,,,,,,,,,,,,,/muse/elements/jaw_clench
2026-01-14 05:32:11.900,0.18945165,0.17936598,-0.42636028,0.16286846,0.22150898,-0.19163017,0.17813969,0.219247,1.1093878,-0.16401158,0.76939136,1.161888,1.2946213,0.3244828,1.3213241,1.3920681,1.3093293,0.24701154,1.3115715,1.3996935,707.07745,660.96564,713.62695,706.4579,747.34784,757.5261,743.09955,1163.6819,-0.4119873046875,-0.04638671875,0.9342041015625,0.34393310546875,-1.054229736328125,-0.418701171875,6.216985909448537,6.051702548697041,4.838169897241494,4.189579190806571,0.0,0.0,0.0,0.0,0.0,0.0,0.0,0.0,0.0,0.0,0.0,0.0,65.295456,1,1.0,1.0,1.0,1.0,73.94
2026-01-14 05:32:12.903,0.10770751,0.17936598,-0.4604535,0.0036829095,0.2618799,-0.19163017,0.08089195,0.25893897,1.1204976,-0.16401158,0.69311583,1.1630949,1.314704,0.3244828,1.2709585,1.4191515,1.3939528,0.24701154,1.2844391,1.4794781,717.60974,728.93854,714.7775,729.7351,492.09546,472.53555,515.8152,522.9842,-0.41552734375,-0.04876708984375,0.932861328125,-0.19439697265625,0.007476806640625,0.3289794921875,6.197118947142551,6.038335836730801,4.808415230193358,4.168308418568056,0.0,0.0,0.0,0.0,0.0,0.0,0.0,0.0,0.0,0.0,0.0,0.0,64.54235,1,1.0,1.0,1.0,1.0,73.90
2026-01-14 05:32:13.354,,,,,,,,,,,,,,,,,,,,,,,,,,,,,,,,,,,,,,,,,,,,,,,,,,,,,,,,,,/muse/elements/jaw_clench
2026-01-14 05:32:13.612,,,,,,,,,,,,,,,,,,,,,,,,,,,,,,,,,,,,,,,,,,,,,,,,,,,,,,,,,,/muse/elements/jaw_clench
2026-01-14 05:32:13.918,-0.67981327,0.17936598,-0.37071443,-0.095240876,-0.046752036,-0.19163017,-0.14213549,0.49797133,1.0521023,-0.16401158,0.53140485,0.9428704,1.0753175,0.3244828,0.9555804,1.0815344,1.1138172,0.24701154,0.97934455,1.160332,710.88324,719.1143,700.882,722.21204,501.83118,491.1219,534.49,548.0315,-0.41656494140625,-0.048095703125,0.92462158203125,0.291595458984375,-0.22430419921875,0.171966552734375,6.195623584388336,6.039342917769353,4.803562930643969,4.167453925565648,0.0,0.0,0.0,0.0,0.0,0.0,0.0,0.0,0.0,0.0,0.0,0.0,64.552086,1,1.0,1.0,1.0,1.0,73.90
2026-01-14 05:32:14.361,,,,,,,,,,,,,,,,,,,,,,,,,,,,,,,,,,,,,,,,,,,,,,,,,,,,,,,,,,/muse/elements/jaw_clench
2026-01-14 05:32:14.516,,,,,,,,,,,,,,,,,,,,,,,,,,,,,,,,,,,,,,,,,,,,,,,,,,,,,,,,,,/muse/elements/jaw_clench
2026-01-14 05:32:14.868,,,,,,,,,,,,,,,,,,,,,,,,,,,,,,,,,,,,,,,,,,,,,,,,,,,,,,,,,,/muse/elements/jaw_clench
2026-01-14 05:32:14.926,0.04807216,0.17936598,-0.37860152,-0.095240876,-0.0355449,-0.19163017,-0.11411002,0.49797133,1.0353656,-0.16401158,0.30515593,0.9428704,1.0011274,0.3244828,0.8163668,1.0815344,1.1170442,0.24701154,0.8673199,1.160332,756.3755,761.5089,748.4099,745.93176,733.1868,737.6122,719.8224,1130.846,-0.41796875,-0.054931640625,0.92449951171875,0.04486083984375,-0.770111083984375,-0.07476806640625,6.232580406742484,6.082586367212646,4.8544968171089335,4.220035762820971,0.0,0.0,0.0,0.0,0.0,0.0,0.0,0.0,0.0,0.0,0.0,0.0,65.417076,1,1.0,1.0,1.0,1.0,73.90
2026-01-14 05:32:15.008,,,,,,,,,,,,,,,,,,,,,,,,,,,,,,,,,,,,,,,,,,,,,,,,,,,,,,,,,,/muse/elements/jaw_clench
2026-01-14 05:32:15.343,,,,,,,,,,,,,,,,,,,,,,,,,,,,,,,,,,,,,,,,,,,,,,,,,,,,,,,,,,/muse/elements/jaw_clench
2026-01-14 05:32:15.503,,,,,,,,,,,,,,,,,,,,,,,,,,,,,,,,,,,,,,,,,,,,,,,,,,,,,,,,,,/muse/elements/jaw_clench
2026-01-14 05:32:15.927,0.433736,0.17936598,-0.37860152,-0.18901451,-0.032532524,-0.19163017,-0.11411002,-0.018327983,0.2776432,-0.16401158,0.30515593,0.5678787,0.6493259,0.3244828,0.8163668,0.9174409,1.065926,0.24701154,0.8673199,1.1541525,701.1475,695.3946,705.0418,710.79474,653.7081,655.4782,656.54034,811.07245,-0.41400146484375,-0.0537109375,0.93341064453125,0.500946044921875,-0.79254150390625,0.1495361328125,6.259619006747252,6.114416231552345,4.899815463843788,4.264347328517274,0.0,0.0,0.0,0.0,0.0,0.0,0.0,0.0,0.0,0.0,0.0,0.0,65.63522,1,1.0,1.0,1.0,1.0,73.90
2026-01-14 05:32:15.974,,,,,,,,,,,,,,,,,,,,,,,,,,,,,,,,,,,,,,,,,,,,,,,,,,,,,,,,,,/muse/elements/jaw_clench
2026-01-14 05:32:16.131,,,,,,,,,,,,,,,,,,,,,,,,,,,,,,,,,,,,,,,,,,,,,,,,,,,,,,,,,,/muse/elements/jaw_clench
2026-01-14 05:32:16.860,,,,,,,,,,,,,,,,,,,,,,,,,,,,,,,,,,,,,,,,,,,,,,,,,,,,,,,,,,/muse/elements/jaw_clench
2026-01-14 05:32:16.942,0.4580442,0.17936598,-0.37860152,-0.16342224,-0.02645303,-0.19163017,-0.11411002,-0.016516836,0.27639255,-0.16401158,0.30515593,0.53269655,0.6593175,0.3244828,0.8163668,0.90794075,1.095432,0.24701154,0.8673199,1.1244607,731.0627,764.07556,737.1696,730.1776,740.44434,730.6202,719.6454,1161.1152,-0.41571044921875,-0.04937744140625,0.9317626953125,0.059814453125,-0.34393310546875,0.411224365234375,6.297552392532723,6.1599485015378015,4.952061607419593,4.3238261450063185,0.0,0.0,0.0,0.0,0.0,0.0,0.0,0.0,0.0,0.0,0.0,0.0,64.80746,1,1.0,1.0,1.0,1.0,73.90
2026-01-14 05:32:17.113,,,,,,,,,,,,,,,,,,,,,,,,,,,,,,,,,,,,,,,,,,,,,,,,,,,,,,,,,,/muse/elements/jaw_clench
2026-01-14 05:32:17.501,,,,,,,,,,,,,,,,,,,,,,,,,,,,,,,,,,,,,,,,,,,,,,,,,,,,,,,,,,/muse/elements/jaw_clench
2026-01-14 05:32:17.628,,,,,,,,,,,,,,,,,,,,,,,,,,,,,,,,,,,,,,,,,,,,,,,,,,,,,,,,,,/muse/elements/blink
2026-01-14 05:32:17.747,,,,,,,,,,,,,,,,,,,,,,,,,,,,,,,,,,,,,,,,,,,,,,,,,,,,,,,,,,/muse/elements/jaw_clench
2026-01-14 05:32:17.952,0.4580442,0.17936598,-0.11193396,-0.15057808,-0.02645303,-0.19163017,-0.4789379,0.265482,0.27639255,-0.16401158,0.25869265,0.69236916,0.6593175,0.3244828,0.6582756,0.8651014,1.095432,0.24701154,0.73346585,1.0154332,733.45233,751.2421,732.5673,746.72833,561.75,546.17285,556.0856,844.1738,-0.4163818359375,-0.05078125,0.93280029296875,0.07476806640625,-0.500946044921875,0.515899658203125,6.346838328207329,6.246771094103903,5.02325918508452,4.441746179338626,0.0,0.0,0.0,0.0,0.0,0.0,0.0,0.0,0.0,0.0,0.0,0.0,64.696205,1,1.0,1.0,1.0,1.0,73.90
2026-01-14 05:32:18.820,,,,,,,,,,,,,,,,,,,,,,,,,,,,,,,,,,,,,,,,,,,,,,,,,,,,,,,,,,/muse/elements/jaw_clench
2026-01-14 05:32:18.970,-0.30803263,0.17936598,-0.17391928,-0.12328191,-0.18555938,-0.19163017,-0.45401528,0.16805573,0.4207812,-0.16401158,0.14454046,0.5217464,0.49435908,0.3244828,0.44403294,0.6062245,0.5113902,0.24701154,0.55654645,0.72545415,718.6718,719.1143,722.5661,722.12354,501.56564,484.12988,510.77032,637.2459,-0.4188232421875,-0.05743408203125,0.92852783203125,0.0897216796875,0.0299072265625,-0.73272705078125,6.355810504732613,6.262701285077367,5.036229168156784,4.462345564218105,0.0,0.0,0.0,0.0,0.0,0.0,0.0,0.0,0.0,0.0,0.0,0.0,66.375694,1,1.0,1.0,1.0,1.0,73.89
2026-01-14 05:32:19.101,,,,,,,,,,,,,,,,,,,,,,,,,,,,,,,,,,,,,,,,,,,,,,,,,,,,,,,,,,/muse/elements/jaw_clench
2026-01-14 05:32:19.719,,,,,,,,,,,,,,,,,,,,,,,,,,,,,,,,,,,,,,,,,,,,,,,,,,,,,,,,,,/muse/elements/jaw_clench
2026-01-14 05:32:19.974,-0.25872603,0.17936598,-0.24018459,-0.1679029,0.09664466,-0.19163017,-0.3741391,0.009427342,0.6418639,-0.16401158,0.17514803,0.657781,0.6329827,0.3244828,0.45941052,0.61706054,0.60776126,0.24701154,0.6191459,0.66146857,710.52924,700.08545,701.236,701.3245,751.2421,764.6066,738.76276,1221.4766,-0.415283203125,-0.054931640625,0.92633056640625,-0.097198486328125,-1.1065673828125,0.10467529296875,6.295324607205016,6.141363278735427,4.950138998164175,4.306248003242496,0.0,0.0,0.0,0.0,0.0,0.0,0.0,0.0,0.0,0.0,0.0,0.0,67.52151,1,1.0,1.0,1.0,1.0,73.89
2026-01-14 05:32:20.248,,,,,,,,,,,,,,,,,,,,,,,,,,,,,,,,,,,,,,,,,,,,,,,,,,,,,,,,,,/muse/elements/jaw_clench
2026-01-14 05:32:20.402,,,,,,,,,,,,,,,,,,,,,,,,,,,,,,,,,,,,,,,,,,,,,,,,,,,,,,,,,,/muse/elements/jaw_clench
2026-01-14 05:32:20.734,,,,,,,,,,,,,,,,,,,,,,,,,,,,,,,,,,,,,,,,,,,,,,,,,,,,,,,,,,/muse/elements/jaw_clench
2026-01-14 05:32:20.987,-0.018744819,0.17936598,-0.21577631,-0.122412674,0.23866975,-0.19163017,-0.14318335,0.21565862,1.2398683,-0.16401158,0.84411365,1.2830796,0.934889,0.3244828,0.84663665,1.1272992,0.9842355,0.24701154,0.9417178,1.1612067,718.14075,723.6282,724.0707,704.9533,776.6435,762.1284,777.88257,1291.5736,-0.41796875,-0.0491943359375,0.927490234375,-0.007476806640625,0.0897216796875,0.022430419921875,6.200445366330496,6.0368404739765875,4.80887299430179,4.164676823307823,0.0,0.0,0.0,0.0,0.0,0.0,0.0,0.0,0.0,0.0,0.0,0.0,67.21457,1,1.0,1.0,1.0,1.0,73.89
2026-01-14 05:32:21.750,,,,,,,,,,,,,,,,,,,,,,,,,,,,,,,,,,,,,,,,,,,,,,,,,,,,,,,,,,/muse/elements/blink
2026-01-14 05:32:21.997,0.06642054,0.17936598,-0.0939005,-0.14494975,0.33274537,-0.19163017,0.090790994,0.49469107,1.2999595,-0.16401158,0.86596537,1.4066632,1.3342721,0.3244828,1.2043397,1.4208857,1.3477929,0.24701154,1.2511612,1.4326812,728.85004,735.2225,720.61896,733.0983,762.748,750.7996,775.22736,1256.879,-0.41754150390625,-0.05596923828125,0.92803955078125,0.426177978515625,-0.710296630859375,0.276641845703125,6.190740767231719,6.023473762010347,4.7957809408006105,4.149204396442792,0.0,0.0,0.0,0.0,0.0,0.0,0.0,0.0,0.0,0.0,0.0,0.0,67.212585,1,1.0,1.0,1.0,1.0,73.89
2026-01-14 05:32:22.497,,,,,,,,,,,,,,,,,,,,,,,,,,,,,,,,,,,,,,,,,,,,,,,,,,,,,,,,,,/muse/elements/jaw_clench
2026-01-14 05:32:22.632,,,,,,,,,,,,,,,,,,,,,,,,,,,,,,,,,,,,,,,,,,,,,,,,,,,,,,,,,,/muse/elements/jaw_clench
2026-01-14 05:32:22.999,,,,,,,,,,,,,,,,,,,,,,,,,,,,,,,,,,,,,,,,,,,,,,,,,,,,,,,,,,/muse/elements/jaw_clench
2026-01-14 05:32:23.010,0.10737548,0.17936598,-0.0939005,-0.10715386,0.24588405,-0.19163017,0.090790994,0.47775242,1.1236533,-0.16401158,0.86596537,1.3142997,1.3410646,0.3244828,1.2043397,1.4461575,1.2796177,0.24701154,1.2511612,1.398507,731.1512,717.69824,730.7972,728.93854,648.9288,655.5668,659.3725,839.83704,-0.41510009765625,-0.0494384765625,0.9300537109375,0.171966552734375,-0.6280517578125,0.43365478515625,6.196752735855804,6.0326290441790045,4.807743842834323,4.161136780869275,0.0,0.0,0.0,0.0,0.0,0.0,0.0,0.0,0.0,0.0,0.0,0.0,68.34007,1,1.0,1.0,1.0,1.0,73.89
2026-01-14 05:32:23.898,,,,,,,,,,,,,,,,,,,,,,,,,,,,,,,,,,,,,,,,,,,,,,,,,,,,,,,,,,/muse/elements/jaw_clench
2026-01-14 05:32:24.012,0.14376882,0.17936598,-0.105149835,0.18444808,0.4200001,-0.19163017,0.13715576,0.34779292,0.9689715,-0.16401158,0.673899,1.0985585,1.212497,0.3244828,1.134969,1.1132228,1.1942078,0.24701154,1.1721549,1.2160585,734.1604,718.14075,728.76154,742.126,747.34784,750.8881,737.6122,1190.5878,-0.41400146484375,-0.051025390625,0.927490234375,-0.01495361328125,-0.112152099609375,-0.64300537109375,6.244848484848485,6.089544381660826,4.879032973320935,4.234836802326967,0.0,0.0,0.0,0.0,0.0,0.0,0.0,0.0,0.0,0.0,0.0,0.0,68.668785,1,1.0,1.0,1.0,1.0,73.89
2026-01-14 05:32:24.112,,,,,,,,,,,,,,,,,,,,,,,,,,,,,,,,,,,,,,,,,,,,,,,,,,,,,,,,,,/muse/elements/jaw_clench
2026-01-14 05:32:24.479,,,,,,,,,,,,,,,,,,,,,,,,,,,,,,,,,,,,,,,,,,,,,,,,,,,,,,,,,,/muse/elements/blink
2026-01-14 05:32:25.027,0.20934704,0.17936598,-0.61336285,0.3914878,0.28175372,-0.19163017,0.012214439,0.37212798,0.9028279,-0.16401158,0.36723077,1.2720267,1.1520704,0.3244828,0.9034336,1.2235837,1.2409703,0.24701154,0.9654821,1.3183938,730.1776,703.97974,714.689,726.2833,746.55133,743.18805,734.0719,1133.6782,-0.4227294921875,-0.05255126953125,0.92510986328125,0.10467529296875,-0.34393310546875,-0.16448974609375,6.295385642419474,6.159521255036597,4.954777674462962,4.3278849867677565,0.0,0.0,0.0,0.0,0.0,0.0,0.0,0.0,0.0,0.0,0.0,0.0,67.5215,1,1.0,1.0,1.0,1.0,73.85
2026-01-14 05:32:25.857,,,,,,,,,,,,,,,,,,,,,,,,,,,,,,,,,,,,,,,,,,,,,,,,,,,,,,,,,,/muse/elements/jaw_clench
2026-01-14 05:32:26.038,0.2597025,0.17936598,-0.61336285,0.57395476,0.23753662,-0.19163017,0.012214439,0.5420733,0.8027368,-0.16401158,0.36723077,1.2706802,1.2164229,0.3244828,0.9034336,1.424794,1.3041482,0.24701154,0.9654821,1.4467012,748.587,743.8961,748.6755,750.00305,740.5329,747.5249,737.2581,1198.7303,-0.41790771484375,-0.0615234375,0.927978515625,0.91217041015625,-0.35888671875,-0.142059326171875,6.336981141072408,6.241796724125599,5.013920797272489,4.435551105071168,0.0,0.0,0.0,0.0,0.0,0.0,0.0,0.0,0.0,0.0,0.0,0.0,67.0123,1,1.0,1.0,1.0,1.0,73.85
2026-01-14 05:32:26.103,,,,,,,,,,,,,,,,,,,,,,,,,,,,,,,,,,,,,,,,,,,,,,,,,,,,,,,,,,/muse/elements/jaw_clench
2026-01-14 05:32:26.354,,,,,,,,,,,,,,,,,,,,,,,,,,,,,,,,,,,,,,,,,,,,,,,,,,,,,,,,,,/muse/elements/jaw_clench
2026-01-14 05:32:27.051,0.031774294,0.17936598,-0.40702328,0.3620154,0.09144157,-0.19163017,0.21946621,0.45842993,0.80267334,-0.16401158,0.743614,0.9898636,1.2233641,0.3244828,1.1830721,1.3023303,1.2729651,0.24701154,1.243567,1.3364666,727.4339,722.5661,719.3798,726.7259,787.9723,781.2458,788.3263,1361.0511,-0.4227294921875,-0.05731201171875,0.92645263671875,0.8074951171875,-0.142059326171875,0.351409912109375,6.30859976634957,6.1791745940919816,4.978978136995446,4.355625491738788,0.0,0.0,0.0,0.0,0.0,0.0,0.0,0.0,0.0,0.0,0.0,0.0,68.06793,1,1.0,1.0,1.0,1.0,73.85
2026-01-14 05:32:27.236,,,,,,,,,,,,,,,,,,,,,,,,,,,,,,,,,,,,,,,,,,,,,,,,,,,,,,,,,,/muse/elements/jaw_clench
2026-01-14 05:32:27.837,,,,,,,,,,,,,,,,,,,,,,,,,,,,,,,,,,,,,,,,,,,,,,,,,,,,,,,,,,/muse/elements/jaw_clench
2026-01-14 05:32:27.967,,,,,,,,,,,,,,,,,,,,,,,,,,,,,,,,,,,,,,,,,,,,,,,,,,,,,,,,,,/muse/elements/jaw_clench
2026-01-14 05:32:28.061,0.09778944,0.17936598,-0.3546915,0.22528207,0.36970216,-0.19163017,0.20295608,0.34455547,0.896728,-0.16401158,0.69948983,0.9038686,1.314896,0.3244828,1.1547112,1.307722,1.2925985,0.24701154,1.2267965,1.3279514,728.14197,721.41547,721.06146,714.06946,760.0043,754.9594,780.5378,1274.1378,-0.4154052734375,-0.0531005859375,0.9320068359375,0.25421142578125,-0.396270751953125,0.179443359375,6.229315022768996,6.063695968337982,4.856510979186038,4.201603128054741,0.0,0.0,0.0,0.0,0.0,0.0,0.0,0.0,0.0,0.0,0.0,0.0,68.06697,1,1.0,1.0,1.0,1.0,73.85
2026-01-14 05:32:28.114,,,,,,,,,,,,,,,,,,,,,,,,,,,,,,,,,,,,,,,,,,,,,,,,,,,,,,,,,,/muse/elements/blink
2026-01-14 05:32:28.365,,,,,,,,,,,,,,,,,,,,,,,,,,,,,,,,,,,,,,,,,,,,,,,,,,,,,,,,,,/muse/elements/jaw_clench
2026-01-14 05:32:28.595,,,,,,,,,,,,,,,,,,,,,,,,,,,,,,,,,,,,,,,,,,,,,,,,,,,,,,,,,,/muse/elements/jaw_clench
2026-01-14 05:32:29.072,0.017883675,0.17936598,-0.3546915,0.18414329,0.080654316,-0.19163017,0.20295608,0.18565805,0.9795585,-0.16401158,0.69948983,0.9409736,1.2802373,0.3244828,1.1547112,1.425784,1.2545108,0.24701154,1.2267965,1.3961279,728.85004,733.8949,724.86725,744.1616,746.55133,746.46277,750.35706,1223.5122,-0.418701171875,-0.05413818359375,0.92742919921875,0.299072265625,-0.0897216796875,-0.157012939453125,6.199224662041342,6.041936914383807,4.812290966311423,4.169254464392151,0.0,0.0,0.0,0.0,0.0,0.0,0.0,0.0,0.0,0.0,0.0,0.0,66.814224,1,1.0,1.0,1.0,1.0,73.85
2026-01-14 05:32:29.114,,,,,,,,,,,,,,,,,,,,,,,,,,,,,,,,,,,,,,,,,,,,,,,,,,,,,,,,,,/muse/elements/jaw_clench
2026-01-14 05:32:29.345,,,,,,,,,,,,,,,,,,,,,,,,,,,,,,,,,,,,,,,,,,,,,,,,,,,,,,,,,,/muse/elements/jaw_clench
2026-01-14 05:32:29.596,,,,,,,,,,,,,,,,,,,,,,,,,,,,,,,,,,,,,,,,,,,,,,,,,,,,,,,,,,/muse/elements/jaw_clench
2026-01-14 05:32:30.074,-0.075417496,0.17936598,-0.3546915,0.02818374,-0.26930848,-0.19163017,0.20295608,-0.17250068,0.7194872,-0.16401158,0.69948983,0.84303856,1.1540316,0.3244828,1.1547112,1.2774616,1.1074586,0.24701154,1.2267965,1.2102741,730.8857,734.86847,728.05347,722.8316,742.0375,728.14197,758.1456,1266.1722,-0.41619873046875,-0.0550537109375,0.92529296875,0.16448974609375,-0.94207763671875,-0.037384033203125,6.210088930214815,6.054754309419927,4.826176477600553,4.186954676584889,0.0,0.0,0.0,0.0,0.0,0.0,0.0,0.0,0.0,0.0,0.0,0.0,67.009705,1,1.0,1.0,1.0,1.0,73.83
2026-01-14 05:32:30.121,,,,,,,,,,,,,,,,,,,,,,,,,,,,,,,,,,,,,,,,,,,,,,,,,,,,,,,,,,/muse/elements/jaw_clench
2026-01-14 05:32:30.230,,,,,,,,,,,,,,,,,,,,,,,,,,,,,,,,,,,,,,,,,,,,,,,,,,,,,,,,,,/muse/elements/jaw_clench
2026-01-14 05:32:30.579,,,,,,,,,,,,,,,,,,,,,,,,,,,,,,,,,,,,,,,,,,,,,,,,,,,,,,,,,,/muse/elements/jaw_clench
2026-01-14 05:32:30.974,,,,,,,,,,,,,,,,,,,,,,,,,,,,,,,,,,,,,,,,,,,,,,,,,,,,,,,,,,/muse/elements/jaw_clench
2026-01-14 05:32:31.092,-0.05404718,0.17936598,-0.3546915,-0.024019733,0.20028895,-0.19163017,0.20295608,-0.051673878,0.61829436,-0.16401158,0.69948983,0.7804354,0.9950195,0.3244828,1.1547112,0.9741412,1.052424,0.24701154,1.2267965,0.99203384,728.319,737.6122,720.70746,729.02704,628.12976,619.6332,611.49054,1034.02,-0.41741943359375,-0.05242919921875,0.9268798828125,0.396270751953125,-0.874786376953125,0.351409912109375,6.213995183940109,6.0585384927163055,4.829441861574041,4.190220060558377,0.0,0.0,0.0,0.0,0.0,0.0,0.0,0.0,0.0,0.0,0.0,0.0,67.90887,1,1.0,1.0,1.0,1.0,73.83
2026-01-14 05:32:31.206,,,,,,,,,,,,,,,,,,,,,,,,,,,,,,,,,,,,,,,,,,,,,,,,,,,,,,,,,,/muse/elements/jaw_clench
2026-01-14 05:32:31.241,,,,,,,,,,,,,,,,,,,,,,,,,,,,,,,,,,,,,,,,,,,,,,,,,,,,,,,,,,/muse/elements/blink
2026-01-14 05:32:31.459,,,,,,,,,,,,,,,,,,,,,,,,,,,,,,,,,,,,,,,,,,,,,,,,,,,,,,,,,,/muse/elements/jaw_clench
2026-01-14 05:32:32.089,,,,,,,,,,,,,,,,,,,,,,,,,,,,,,,,,,,,,,,,,,,,,,,,,,,,,,,,,,/muse/elements/jaw_clench
2026-01-14 05:32:32.102,0.190685,0.17936598,-0.3546915,-0.27020028,0.17019512,-0.19163017,0.20295608,0.16326438,0.677614,-0.16401158,0.69948983,0.77607316,1.0324247,0.3244828,1.1547112,1.1465601,1.0456519,0.24701154,1.2267965,1.0792699,738.2317,742.3915,741.5065,736.46155,758.41113,760.0043,767.0848,1257.5872,-0.416748046875,-0.05914306640625,0.92694091796875,0.11962890625,-0.246734619140625,-0.10467529296875,6.3038695372290965,6.170721216889588,4.963688815773788,4.337955797153279,0.0,0.0,0.0,0.0,0.0,0.0,0.0,0.0,0.0,0.0,0.0,0.0,67.40862,1,1.0,1.0,1.0,1.0,73.83
2026-01-14 05:32:32.224,,,,,,,,,,,,,,,,,,,,,,,,,,,,,,,,,,,,,,,,,,,,,,,,,,,,,,,,,,/muse/elements/blink
2026-01-14 05:32:32.350,,,,,,,,,,,,,,,,,,,,,,,,,,,,,,,,,,,,,,,,,,,,,,,,,,,,,,,,,,/muse/elements/jaw_clench
2026-01-14 05:32:32.954,,,,,,,,,,,,,,,,,,,,,,,,,,,,,,,,,,,,,,,,,,,,,,,,,,,,,,,,,,/muse/elements/jaw_clench
2026-01-14 05:32:33.106,0.15745547,0.17936598,-0.10200741,-0.28826857,-0.32454795,-0.19163017,-0.4809472,-0.2759642,0.61351097,-0.16401158,0.07385556,0.5590362,0.53447443,0.3244828,0.45792663,0.61846846,0.560792,0.24701154,0.48484266,0.76066715,724.0707,723.4511,722.03503,732.12476,498.73343,478.554,507.49557,614.32275,-0.41717529296875,-0.04852294921875,0.93035888671875,-0.052337646484375,-0.530853271484375,0.291595458984375,6.327612235653148,6.216161934053358,5.00024890923396,4.400791550437498,0.0,0.0,0.0,0.0,0.0,0.0,0.0,0.0,0.0,0.0,0.0,0.0,66.63415,1,1.0,1.0,1.0,1.0,73.83
2026-01-14 05:32:33.224,,,,,,,,,,,,,,,,,,,,,,,,,,,,,,,,,,,,,,,,,,,,,,,,,,,,,,,,,,/muse/elements/jaw_clench
2026-01-14 05:32:33.867,,,,,,,,,,,,,,,,,,,,,,,,,,,,,,,,,,,,,,,,,,,,,,,,,,,,,,,,,,/muse/elements/jaw_clench
2026-01-14 05:32:34.115,0.0909483,0.36249015,-0.2653615,-0.17451829,-0.27212515,0.09424579,-0.69313973,0.0020109417,0.41247687,0.3458439,-0.042977054,0.6162428,0.4570398,0.5847622,0.37965065,0.43205583,0.52643824,0.5915954,0.48286414,0.57012665,745.4007,741.0639,726.3718,738.2317,770.0055,767.4388,738.1432,1166.4255,-0.41912841796875,-0.04913330078125,0.92193603515625,-0.321502685546875,-1.218719482421875,0.934600830078125,6.254431013518347,6.089819040125885,4.89575662208235,4.23770545740648,0.0,0.0,0.0,0.0,0.0,0.0,0.0,0.0,0.0,0.0,0.0,0.0,67.43578,1,1.0,1.0,1.0,1.0,73.83
2026-01-14 05:32:34.971,,,,,,,,,,,,,,,,,,,,,,,,,,,,,,,,,,,,,,,,,,,,,,,,,,,,,,,,,,/muse/elements/jaw_clench
2026-01-14 05:32:34.973,,,,,,,,,,,,,,,,,,,,,,,,,,,,,,,,,,,,,,,,,,,,,,,,,,,,,,,,,,/muse/elements/blink
2026-01-14 05:32:35.122,0.24674742,-0.09487194,-0.3029101,0.21963765,0.39069557,-0.031021776,-0.3641509,0.40999016,0.8776211,-0.11214325,0.84475195,0.8647298,0.7537079,0.029993983,0.6253134,0.7446923,0.7638962,0.05147754,0.6929228,0.90572697,750.09155,740.5329,743.8076,748.6755,750.00305,743.18805,713.98096,1162.7968,-0.41387939453125,-0.04986572265625,0.9307861328125,0.059814453125,-0.79254150390625,-0.61309814453125,6.2319090193834485,6.061651288653649,4.861943113272775,4.201328469589681,0.0,0.0,0.0,0.0,0.0,0.0,0.0,0.0,0.0,0.0,0.0,0.0,68.00688,1,1.0,1.0,1.0,1.0,73.83
2026-01-14 05:32:36.001,,,,,,,,,,,,,,,,,,,,,,,,,,,,,,,,,,,,,,,,,,,,,,,,,,,,,,,,,,/muse/elements/blink
2026-01-14 05:32:36.128,0.21062866,-0.09487194,-0.15853183,0.031936813,0.39469066,-0.031021776,-0.09790907,0.3055565,0.8913017,-0.11214325,0.85111046,0.89880985,0.94054025,0.029993983,0.8197888,0.9396329,0.9558008,0.05147754,0.85242444,1.0373194,700.882,713.2729,712.6534,706.2809,598.0376,582.8145,599.4537,644.2379,-0.41748046875,-0.0478515625,0.92486572265625,0.538330078125,-0.2392578125,0.179443359375,6.168676537205255,5.999700545979067,4.768040435829578,4.119144553322366,0.0,0.0,0.0,0.0,0.0,0.0,0.0,0.0,0.0,0.0,0.0,0.0,67.421524,1,1.0,1.0,1.0,1.0,73.78
2026-01-14 05:32:36.846,,,,,,,,,,,,,,,,,,,,,,,,,,,,,,,,,,,,,,,,,,,,,,,,,,,,,,,,,,/muse/elements/jaw_clench
2026-01-14 05:32:37.134,-0.061566796,-0.09487194,-0.22744416,-0.27743685,0.20688713,-0.031021776,-0.030551717,0.11419903,0.58433366,-0.11214325,0.5489942,0.67210317,0.90666026,0.029993983,0.86319876,0.97236955,0.81107795,0.05147754,0.81211466,0.9065253,692.91644,706.90045,704.5993,705.1303,740.9754,742.83405,759.2962,1259.0918,-0.42169189453125,-0.05474853515625,0.926513671875,0.31402587890625,-1.293487548828125,0.082244873046875,6.174352812149823,6.009649285935675,4.774754309419927,4.129703645423551,0.0,0.0,0.0,0.0,0.0,0.0,0.0,0.0,0.0,0.0,0.0,0.0,67.02064,1,1.0,1.0,1.0,1.0,73.78
2026-01-14 05:32:37.210,,,,,,,,,,,,,,,,,,,,,,,,,,,,,,,,,,,,,,,,,,,,,,,,,,,,,,,,,,/muse/elements/jaw_clench
2026-01-14 05:32:38.139,0.18560618,-0.09487194,-0.022530597,-0.121408045,0.16952704,-0.031021776,0.074916296,0.053222016,0.9024574,-0.11214325,0.38931373,1.2719469,0.99093544,0.029993983,0.73487884,1.0948768,0.95080715,0.05147754,0.72733897,1.0525522,702.2096,712.8304,702.1211,697.8728,745.75476,741.5065,730.7087,1030.4797,-0.41522216796875,-0.048583984375,0.93084716796875,0.022430419921875,-0.418701171875,0.366363525390625,6.17844217151849,6.016271606704337,4.783573897909067,4.138095987411487,0.0,0.0,0.0,0.0,0.0,0.0,0.0,0.0,0.0,0.0,0.0,0.0,68.14357,1,1.0,1.0,1.0,1.0,73.78
2026-01-14 05:32:38.212,,,,,,,,,,,,,,,,,,,,,,,,,,,,,,,,,,,,,,,,,,,,,,,,,,,,,,,,,,/muse/elements/blink
2026-01-14 05:32:39.154,0.1258616,-0.09487194,0.09933822,0.35072234,0.3308165,-0.031021776,0.09991704,0.49351603,0.88316876,-0.11214325,0.5241292,1.2849975,1.1447966,0.029993983,0.91539437,1.2664175,1.0839732,0.05147754,0.9122425,1.2032802,723.5397,713.53845,715.7511,723.5397,765.13763,769.3859,745.66626,1158.0175,-0.41650390625,-0.04931640625,0.92626953125,0.2093505859375,-0.291595458984375,-0.4486083984375,6.2423155234484895,6.092657177598169,4.875248790024557,4.234195932575162,0.0,0.0,0.0,0.0,0.0,0.0,0.0,0.0,0.0,0.0,0.0,0.0,68.579315,1,1.0,1.0,1.0,1.0,73.78
2026-01-14 05:32:39.871,,,,,,,,,,,,,,,,,,,,,,,,,,,,,,,,,,,,,,,,,,,,,,,,,,,,,,,,,,/muse/elements/jaw_clench
2026-01-14 05:32:40.162,0.25834438,-0.09487194,0.048665415,0.37775278,0.27627644,-0.031021776,0.04906019,0.33325815,1.1004901,-0.11214325,0.5631549,1.2220774,1.1908358,0.029993983,0.9829031,1.2873559,1.1401842,0.05147754,1.0143291,1.2674003,728.23047,725.04425,724.1592,734.4259,751.3306,755.6675,751.0651,1223.7777,-0.4161376953125,-0.056396484375,0.93182373046875,0.037384033203125,-0.70281982421875,-0.351409912109375,6.289037980115872,6.1520139236582985,4.941136304031662,4.311405478864173,0.0,0.0,0.0,0.0,0.0,0.0,0.0,0.0,0.0,0.0,0.0,0.0,67.15651,1,1.0,1.0,1.0,1.0,73.78
2026-01-14 05:32:40.720,,,,,,,,,,,,,,,,,,,,,,,,,,,,,,,,,,,,,,,,,,,,,,,,,,,,,,,,,,/muse/elements/jaw_clench
2026-01-14 05:32:41.164,0.35306597,-0.09487194,-0.28621387,0.24397802,0.36592242,-0.031021776,0.06525001,0.23223837,1.1384517,-0.11214325,0.8410024,1.3120993,1.2341022,0.029993983,1.2358441,1.3155797,1.2488418,0.05147754,1.3092903,1.3434155,738.1432,729.29254,727.69946,734.77997,768.5009,764.6066,760.3583,1358.7499,-0.4183349609375,-0.05145263671875,0.92718505859375,0.13458251953125,-0.859832763671875,0.261688232421875,6.338751162291682,6.241094819159335,5.011021624585747,4.428501537801302,0.0,0.0,0.0,0.0,0.0,0.0,0.0,0.0,0.0,0.0,0.0,0.0,65.78357,1,1.0,1.0,1.0,1.0,73.78
2026-01-14 05:32:41.480,,,,,,,,,,,,,,,,,,,,,,,,,,,,,,,,,,,,,,,,,,,,,,,,,,,,,,,,,,/muse/elements/jaw_clench
2026-01-14 05:32:41.864,,,,,,,,,,,,,,,,,,,,,,,,,,,,,,,,,,,,,,,,,,,,,,,,,,,,,,,,,,/muse/elements/jaw_clench
2026-01-14 05:32:42.076,,,,,,,,,,,,,,,,,,,,,,,,,,,,,,,,,,,,,,,,,,,,,,,,,,,,,,,,,,/muse/elements/jaw_clench
2026-01-14 05:32:42.178,0.11486149,-0.09487194,-0.36303082,0.03641544,0.3281976,-0.031021776,0.054585997,0.20992063,0.97342646,-0.11214325,0.8624569,1.2569124,1.1427878,0.029993983,1.1510599,1.2083029,1.1736774,0.05147754,1.2086096,1.2449087,747.43634,735.488,741.1524,736.9041,783.901,779.29865,771.06757,1382.8236,-0.414794921875,-0.0482177734375,0.93035888671875,0.067291259765625,-0.515899658203125,0.04486083984375,6.33905633836397,6.242223970626803,5.012059223231528,4.430302076627805,0.0,0.0,0.0,0.0,0.0,0.0,0.0,0.0,0.0,0.0,0.0,0.0,65.852486,1,1.0,1.0,1.0,1.0,73.77
2026-01-14 05:32:42.327,,,,,,,,,,,,,,,,,,,,,,,,,,,,,,,,,,,,,,,,,,,,,,,,,,,,,,,,,,/muse/elements/jaw_clench
2026-01-14 05:32:42.580,,,,,,,,,,,,,,,,,,,,,,,,,,,,,,,,,,,,,,,,,,,,,,,,,,,,,,,,,,/muse/elements/jaw_clench
2026-01-14 05:32:42.610,,,,,,,,,,,,,,,,,,,,,,,,,,,,,,,,,,,,,,,,,,,,,,,,,,,,,,,,,,/muse/elements/blink
2026-01-14 05:32:43.103,,,,,,,,,,,,,,,,,,,,,,,,,,,,,,,,,,,,,,,,,,,,,,,,,,,,,,,,,,/muse/elements/jaw_clench
2026-01-14 05:32:43.186,0.1649605,-0.09487194,-0.35480845,0.013455545,0.35834706,-0.031021776,-0.08360161,0.109700195,0.88945633,-0.11214325,0.37952343,0.69136095,1.028771,0.029993983,0.95060426,1.0348126,1.0799919,0.05147754,1.0899669,1.1665138,710.4407,703.36017,706.1924,709.73267,596.9755,595.82495,616.2699,653.26556,-0.41961669921875,-0.05718994140625,0.92926025390625,-0.1495361328125,0.13458251953125,-0.61309814453125,6.35562739908924,6.269842405168919,5.035069499082088,4.467503039839783,0.0,0.0,0.0,0.0,0.0,0.0,0.0,0.0,0.0,0.0,0.0,0.0,66.360794,1,1.0,1.0,1.0,1.0,73.77
2026-01-14 05:32:43.356,,,,,,,,,,,,,,,,,,,,,,,,,,,,,,,,,,,,,,,,,,,,,,,,,,,,,,,,,,/muse/elements/jaw_clench
2026-01-14 05:32:43.607,,,,,,,,,,,,,,,,,,,,,,,,,,,,,,,,,,,,,,,,,,,,,,,,,,,,,,,,,,/muse/elements/jaw_clench
2026-01-14 05:32:43.803,,,,,,,,,,,,,,,,,,,,,,,,,,,,,,,,,,,,,,,,,,,,,,,,,,,,,,,,,,/muse/elements/jaw_clench
2026-01-14 05:32:44.093,,,,,,,,,,,,,,,,,,,,,,,,,,,,,,,,,,,,,,,,,,,,,,,,,,,,,,,,,,/muse/elements/jaw_clench
2026-01-14 05:32:44.191,0.023248222,-0.09487194,-0.7262513,0.070767455,0.19654194,-0.031021776,-0.40047178,0.21712522,0.7403634,-0.11214325,0.1425164,0.6418651,1.0280675,0.029993983,0.89325964,1.1144336,1.0961019,0.05147754,1.0342296,1.1687028,749.73755,744.6927,747.08234,743.01105,763.63306,760.88934,765.22614,1247.5859,-0.4149169921875,-0.05517578125,0.9285888671875,0.0897216796875,-0.37384033203125,0.246734619140625,6.2171079798774525,6.0562496721741415,4.8344162315523445,4.186893641370431,0.0,0.0,0.0,0.0,0.0,0.0,0.0,0.0,0.0,0.0,0.0,0.0,65.62553,1,1.0,1.0,1.0,1.0,73.77
2026-01-14 05:32:44.714,,,,,,,,,,,,,,,,,,,,,,,,,,,,,,,,,,,,,,,,,,,,,,,,,,,,,,,,,,/muse/elements/jaw_clench
2026-01-14 05:32:44.980,,,,,,,,,,,,,,,,,,,,,,,,,,,,,,,,,,,,,,,,,,,,,,,,,,,,,,,,,,/muse/elements/jaw_clench
2026-01-14 05:32:45.199,-0.12518997,-0.09487194,-0.29001573,0.034401257,0.015744854,-0.031021776,-0.3160507,-0.09421643,0.7011841,-0.11214325,0.41204533,0.5316799,0.9087446,0.029993983,0.83113074,0.82519305,1.012086,0.05147754,0.969363,0.95765996,714.866,713.4499,714.42346,709.73267,519.2669,507.23004,571.39716,508.64615,-0.41888427734375,-0.052734375,0.92596435546875,0.261688232421875,-0.321502685546875,0.306549072265625,6.201238824118446,6.044317287747657,4.810734568342751,4.169407052428295,0.0,0.0,0.0,0.0,0.0,0.0,0.0,0.0,0.0,0.0,0.0,0.0,65.324036,1,1.0,1.0,1.0,1.0,73.77
2026-01-14 05:32:45.583,,,,,,,,,,,,,,,,,,,,,,,,,,,,,,,,,,,,,,,,,,,,,,,,,,,,,,,,,,/muse/elements/jaw_clench
2026-01-14 05:32:45.804,,,,,,,,,,,,,,,,,,,,,,,,,,,,,,,,,,,,,,,,,,,,,,,,,,,,,,,,,,/muse/elements/jaw_clench
2026-01-14 05:32:46.205,-0.27529278,-0.09487194,-4.1114452E-4,-0.11260404,-0.13814548,-0.031021776,-0.22319439,-0.09277456,0.715099,-0.11214325,0.38750476,0.7166562,0.80477446,0.029993983,0.76478916,0.81774837,0.6716657,0.05147754,0.936224,0.9053174,728.319,739.11676,731.3282,724.1592,773.2802,778.1481,784.255,1300.6897,-0.41217041015625,-0.05584716796875,0.92791748046875,0.418701171875,-1.966400146484375,-0.1495361328125,6.18726176000763,6.027746227022387,4.793949884366879,4.151218558519896,0.0,0.0,0.0,0.0,0.0,0.0,0.0,0.0,0.0,0.0,0.0,0.0,66.17311,1,1.0,1.0,1.0,1.0,73.77
2026-01-14 05:32:46.470,,,,,,,,,,,,,,,,,,,,,,,,,,,,,,,,,,,,,,,,,,,,,,,,,,,,,,,,,,/muse/elements/jaw_clench
2026-01-14 05:32:47.036,,,,,,,,,,,,,,,,,,,,,,,,,,,,,,,,,,,,,,,,,,,,,,,,,,,,,,,,,,/muse/elements/jaw_clench
2026-01-14 05:32:47.219,0.05109401,0.24052764,0.059459217,0.049596783,0.3530122,0.1720144,-0.5299785,0.033977933,0.9339085,0.25787854,-0.008958919,1.0591742,0.72681564,0.4688198,0.58046967,0.79237485,0.5994571,0.5964996,0.614689,0.81891936,746.72833,740.26733,739.8248,740.17883,775.8469,759.56177,740.35583,1202.6246,-0.413818359375,-0.05169677734375,0.93035888671875,0.620574951171875,-0.261688232421875,0.46356201171875,6.19501323224376,6.03836635433803,4.805851751186133,4.163456119018668,0.0,0.0,0.0,0.0,0.0,0.0,0.0,0.0,0.0,0.0,0.0,0.0,66.83649,1,1.0,1.0,1.0,1.0,73.74
2026-01-14 05:32:48.219,,,,,,,,,,,,,,,,,,,,,,,,,,,,,,,,,,,,,,,,,,,,,,,,,,,,,,,,,,/muse/elements/jaw_clench
2026-01-14 05:32:48.230,0.34955475,0.28776914,0.12457871,0.4343546,0.4315702,0.30458724,-0.41271466,0.30081084,0.840235,0.31179357,-0.101260245,0.9199719,0.47855538,0.46314564,0.349682,0.54582226,0.39639124,0.50065863,0.375917,0.540962,686.898,685.3934,688.66815,709.2016,744.6042,751.4191,763.54456,1271.1287,-0.42791748046875,-0.05938720703125,0.9306640625,0.755157470703125,-0.478515625,-0.949554443359375,6.297186181245976,6.159490737429368,4.952305748277424,4.320530243425601,0.0,0.0,0.0,0.0,0.0,0.0,0.0,0.0,0.0,0.0,0.0,0.0,66.25524,1,1.0,1.0,1.0,1.0,73.74
2026-01-14 05:32:48.599,,,,,,,,,,,,,,,,,,,,,,,,,,,,,,,,,,,,,,,,,,,,,,,,,,,,,,,,,,/muse/elements/jaw_clench
2026-01-14 05:32:48.847,,,,,,,,,,,,,,,,,,,,,,,,,,,,,,,,,,,,,,,,,,,,,,,,,,,,,,,,,,/muse/elements/jaw_clench
2026-01-14 05:32:49.244,0.12650089,0.25604826,0.018653331,0.366763,0.04008493,0.3201579,-0.3329175,0.31341833,0.37678164,0.20697945,-0.29178667,0.3725008,0.5162414,0.52666396,0.3153625,0.44639027,0.32773674,0.41152215,0.35477877,0.4667222,752.2157,766.2882,752.0387,741.949,746.28577,733.2753,727.69946,1185.6315,-0.4281005859375,-0.05596923828125,0.92437744140625,0.79254150390625,0.216827392578125,0.859832763671875,6.30777579095439,6.185278115537754,4.970219583720764,4.356724125599027,0.0,0.0,0.0,0.0,0.0,0.0,0.0,0.0,0.0,0.0,0.0,0.0,66.63569,1,1.0,1.0,1.0,1.0,73.74
2026-01-14 05:32:50.227,,,,,,,,,,,,,,,,,,,,,,,,,,,,,,,,,,,,,,,,,,,,,,,,,,,,,,,,,,/muse/elements/jaw_clench
2026-01-14 05:32:50.245,0.1448674,0.31276545,-0.43040782,0.366763,0.5378496,0.16957085,0.05064497,0.31341833,0.6670239,0.646648,0.41456732,0.3725008,1.039064,0.8997185,0.93886834,0.44639027,1.0461868,0.9387747,1.0308064,0.4667222,722.30054,714.42346,720.2649,725.6638,604.7641,595.82495,619.0136,659.54956,-0.42559814453125,-0.05877685546875,0.9266357421875,0.142059326171875,-0.2093505859375,-0.456085205078125,6.145605226140238,5.969030350714064,4.738621462460959,4.0820351429320745,0.0,0.0,0.0,0.0,0.0,0.0,0.0,0.0,0.0,0.0,0.0,0.0,69.59441,1,1.0,1.0,1.0,1.0,73.74
2026-01-14 05:32:50.479,,,,,,,,,,,,,,,,,,,,,,,,,,,,,,,,,,,,,,,,,,,,,,,,,,,,,,,,,,/muse/elements/jaw_clench
2026-01-14 05:32:50.579,,,,,,,,,,,,,,,,,,,,,,,,,,,,,,,,,,,,,,,,,,,,,,,,,,,,,,,,,,/muse/elements/blink
2026-01-14 05:32:51.254,0.02944206,0.39383382,-0.33573306,-0.04832804,0.26275703,0.52574974,0.0024116398,0.36792693,0.9686752,0.87975174,0.63024884,1.0482495,1.0670822,1.1237291,0.9269093,1.1134223,1.106441,1.1568265,1.0455536,1.145307,720.79596,724.95575,717.4327,713.98096,676.9853,670.61285,677.87036,857.89233,-0.425537109375,-0.0550537109375,0.92144775390625,0.381317138671875,0.291595458984375,0.007476806640625,6.156530529528169,5.992467873065827,4.750431776458527,4.1040688553513105,0.0,0.0,0.0,0.0,0.0,0.0,0.0,0.0,0.0,0.0,0.0,0.0,71.26167,1,1.0,1.0,1.0,1.0,73.74
2026-01-14 05:32:52.224,,,,,,,,,,,,,,,,,,,,,,,,,,,,,,,,,,,,,,,,,,,,,,,,,,,,,,,,,,/muse/elements/jaw_clench
2026-01-14 05:32:52.264,0.17387599,0.46241173,0.04012487,-0.11844532,0.1165009,0.6296601,-0.24017116,0.07411493,0.82286084,0.74848765,0.5684325,1.0244344,1.050752,1.0635626,0.8948946,1.1200161,1.033855,1.0552516,0.9099997,1.1545851,742.74554,733.0098,731.1512,728.58453,750.00305,755.6675,768.41235,1275.554,-0.42144775390625,-0.055419921875,0.93157958984375,0.351409912109375,-0.964508056640625,-0.261688232421875,6.209081849176263,6.058477457501848,4.826329065636697,4.185184655365616,0.0,0.0,0.0,0.0,0.0,0.0,0.0,0.0,0.0,0.0,0.0,0.0,71.573044,1,1.0,1.0,1.0,1.0,73.74
2026-01-14 05:32:52.854,,,,,,,,,,,,,,,,,,,,,,,,,,,,,,,,,,,,,,,,,,,,,,,,,,,,,,,,,,/muse/elements/jaw_clench
2026-01-14 05:32:53.102,,,,,,,,,,,,,,,,,,,,,,,,,,,,,,,,,,,,,,,,,,,,,,,,,,,,,,,,,,/muse/elements/jaw_clench
2026-01-14 05:32:53.268,0.22251111,0.42081806,0.15422085,0.17951941,0.18795198,0.43814707,-0.24436471,-0.0051232483,0.41334614,0.6633517,0.4342892,0.6554247,1.0484312,1.0816542,0.8888994,0.9959284,0.96898645,1.0947837,0.92348015,1.0417664,744.8697,744.8697,738.85126,729.11554,754.5169,757.43756,761.15485,1213.9535,-0.42694091796875,-0.0543212890625,0.92596435546875,0.2093505859375,-0.22430419921875,0.441131591796875,6.287237441289369,6.148534916434208,4.935551581908781,4.301487256514794,0.0,0.0,0.0,0.0,0.0,0.0,0.0,0.0,0.0,0.0,0.0,0.0,70.197655,1,1.0,1.0,1.0,1.0,73.70
2026-01-14 05:32:53.322,,,,,,,,,,,,,,,,,,,,,,,,,,,,,,,,,,,,,,,,,,,,,,,,,,,,,,,,,,/muse/elements/jaw_clench
2026-01-14 05:32:53.703,,,,,,,,,,,,,,,,,,,,,,,,,,,,,,,,,,,,,,,,,,,,,,,,,,,,,,,,,,/muse/elements/blink
2026-01-14 05:32:54.216,,,,,,,,,,,,,,,,,,,,,,,,,,,,,,,,,,,,,,,,,,,,,,,,,,,,,,,,,,/muse/elements/jaw_clench
2026-01-14 05:32:54.276,0.16229068,0.11914344,0.20250581,0.07326644,0.42655873,0.17261414,-0.2691927,0.37427753,0.7798606,0.55257744,0.3096053,1.000154,1.1903992,1.0198237,0.79347974,1.204886,1.315633,1.0446565,0.8335513,1.2772706,743.6306,744.0731,741.8605,736.8156,773.3687,778.67914,790.45044,1342.3762,-0.4227294921875,-0.0474853515625,0.927978515625,-0.01495361328125,-0.740203857421875,-0.351409912109375,6.30646353384355,6.178747347590778,4.963475192523187,4.341831533271344,0.0,0.0,0.0,0.0,0.0,0.0,0.0,0.0,0.0,0.0,0.0,0.0,68.39752,1,1.0,1.0,1.0,1.0,73.70
2026-01-14 05:32:54.837,,,,,,,,,,,,,,,,,,,,,,,,,,,,,,,,,,,,,,,,,,,,,,,,,,,,,,,,,,/muse/elements/jaw_clench
2026-01-14 05:32:55.061,,,,,,,,,,,,,,,,,,,,,,,,,,,,,,,,,,,,,,,,,,,,,,,,,,,,,,,,,,/muse/elements/jaw_clench
2026-01-14 05:32:55.278,0.15575835,0.11914344,0.20250581,0.056698177,0.44469705,0.17261414,-0.2691927,0.39266938,1.0541234,0.55257744,0.3096053,1.1144043,1.1824679,1.0198237,0.79347974,1.2519926,1.2320553,1.0446565,0.8335513,1.307462,717.69824,691.4118,702.1211,718.9373,754.42834,750.7996,759.3847,1261.57,-0.42535400390625,-0.05511474609375,0.92510986328125,0.082244873046875,-0.530853271484375,-0.478515625,6.337927186896502,6.233190758887061,5.004979138354433,4.413517392651932,0.0,0.0,0.0,0.0,0.0,0.0,0.0,0.0,0.0,0.0,0.0,0.0,68.09206,1,1.0,1.0,1.0,1.0,73.70
2026-01-14 05:32:55.333,,,,,,,,,,,,,,,,,,,,,,,,,,,,,,,,,,,,,,,,,,,,,,,,,,,,,,,,,,/muse/elements/jaw_clench
2026-01-14 05:32:55.599,,,,,,,,,,,,,,,,,,,,,,,,,,,,,,,,,,,,,,,,,,,,,,,,,,,,,,,,,,/muse/elements/jaw_clench
2026-01-14 05:32:55.865,,,,,,,,,,,,,,,,,,,,,,,,,,,,,,,,,,,,,,,,,,,,,,,,,,,,,,,,,,/muse/elements/jaw_clench
2026-01-14 05:32:55.963,,,,,,,,,,,,,,,,,,,,,,,,,,,,,,,,,,,,,,,,,,,,,,,,,,,,,,,,,,/muse/elements/blink
2026-01-14 05:32:56.064,,,,,,,,,,,,,,,,,,,,,,,,,,,,,,,,,,,,,,,,,,,,,,,,,,,,,,,,,,/muse/elements/jaw_clench
2026-01-14 05:32:56.286,0.051430188,0.11914344,-0.4904341,0.035975505,0.20617805,0.17261414,0.10745981,0.10492171,1.190973,0.55257744,0.5419276,1.2382628,0.9645444,1.0198237,0.94681996,1.1231134,1.0916998,1.0446565,1.0278733,1.1970161,720.53046,702.1211,708.7591,712.6534,764.25256,751.2421,759.2077,1257.3217,-0.42218017578125,-0.06005859375,0.92657470703125,0.01495361328125,-0.76263427734375,-0.52337646484375,6.347692821209737,6.2477781751424555,5.018742579214648,4.4317669217747895,0.0,0.0,0.0,0.0,0.0,0.0,0.0,0.0,0.0,0.0,0.0,0.0,67.42235,1,1.0,1.0,1.0,1.0,73.70
2026-01-14 05:32:57.079,,,,,,,,,,,,,,,,,,,,,,,,,,,,,,,,,,,,,,,,,,,,,,,,,,,,,,,,,,/muse/elements/jaw_clench
2026-01-14 05:32:57.297,0.07263709,0.11914344,-0.24905343,-0.2134849,0.23607902,0.17261414,-0.4987082,-0.14034234,1.1658568,0.55257744,0.21096146,1.0983769,0.96896046,1.0198237,0.55135787,0.89915216,1.1144542,1.0446565,0.7735318,1.0620968,728.14197,729.5581,735.488,724.2477,737.0811,751.2421,757.34906,1218.9098,-0.4217529296875,-0.05181884765625,0.9263916015625,0.3887939453125,-1.435546875,0.231781005859375,6.363531459361514,6.273382447607467,5.0430345945688195,4.466068712300026,0.0,0.0,0.0,0.0,0.0,0.0,0.0,0.0,0.0,0.0,0.0,0.0,65.76298,1,1.0,1.0,1.0,1.0,73.70
2026-01-14 05:32:57.570,,,,,,,,,,,,,,,,,,,,,,,,,,,,,,,,,,,,,,,,,,,,,,,,,,,,,,,,,,/muse/elements/jaw_clench
2026-01-14 05:32:57.793,,,,,,,,,,,,,,,,,,,,,,,,,,,,,,,,,,,,,,,,,,,,,,,,,,,,,,,,,,/muse/elements/jaw_clench
2026-01-14 05:32:58.083,,,,,,,,,,,,,,,,,,,,,,,,,,,,,,,,,,,,,,,,,,,,,,,,,,,,,,,,,,/muse/elements/jaw_clench
2026-01-14 05:32:58.307,-0.1902764,0.11914344,-0.2945348,0.07561341,0.20730118,0.17261414,-0.44541672,-0.06446957,0.3979231,0.55257744,0.015281814,0.795192,0.78041595,1.0198237,0.40683216,0.7546158,0.86191916,1.0446565,0.59088093,0.8872012,724.4247,731.3282,730.8857,728.85004,741.4179,731.50525,737.5237,1114.4723,-0.42108154296875,-0.0516357421875,0.93536376953125,0.157012939453125,-0.777587890625,-0.575714111328125,6.284307750995398,6.128332260448704,4.932011539470233,4.280124931454593,0.0,0.0,0.0,0.0,0.0,0.0,0.0,0.0,0.0,0.0,0.0,0.0,65.558716,1,1.0,1.0,1.0,1.0,73.68
2026-01-14 05:32:58.342,,,,,,,,,,,,,,,,,,,,,,,,,,,,,,,,,,,,,,,,,,,,,,,,,,,,,,,,,,/muse/elements/jaw_clench
2026-01-14 05:32:58.872,,,,,,,,,,,,,,,,,,,,,,,,,,,,,,,,,,,,,,,,,,,,,,,,,,,,,,,,,,/muse/elements/jaw_clench
2026-01-14 05:32:59.205,,,,,,,,,,,,,,,,,,,,,,,,,,,,,,,,,,,,,,,,,,,,,,,,,,,,,,,,,,/muse/elements/jaw_clench
