TimeStamp,Delta_TP9,Delta_AF7,Delta_AF8,Delta_TP10,Theta_TP9,Theta_AF7,Theta_AF8,Theta_TP10,Alpha_TP9,Alpha_AF7,Alpha_AF8,Alpha_TP10,Beta_TP9,Beta_AF7,Beta_AF8,Beta_TP10,Gamma_TP9,Gamma_AF7,Gamma_AF8,Gamma_TP10,RAW_TP9,RAW_AF7,RAW_AF8,RAW_TP10,AUX_1,AUX_2,AUX_3,AUX_4,Accelerometer_X,Accelerometer_Y,Accelerometer_Z,Gyro_X,Gyro_Y,Gyro_Z,Optics1,Optics2,Optics3,Optics4,Optics5,Optics6,Optics7,Optics8,Optics9,Optics10,Optics11,Optics12,Optics13,Optics14,Optics15,Optics16,Heart_Rate,HeadBandOn,HSI_TP9,HSI_AF7,HSI_AF8,HSI_TP10,Battery,Elements
2026-01-13 05:42:20.067,,,,,,,,,,,,,,,,,,,,,,,,,,,,,,,,,,,,,,,,,,,,,,,,,,,,,,,,,,/muse/event/connected MuseS-0465
2026-01-13 05:42:20.089,0.0,1.4916086,0.7724141,1.1791737,0.0,1.2443274,0.51379746,1.2275239,0.0,1.2177668,0.047223087,1.6585314,0.0,0.6907198,0.35642165,1.104175,0.0,0.31467324,-0.035587925,0.8681181,676.8083,725.7523,763.72156,468.9953,747.5249,749.91455,745.66626,1173.6831,0.1494140625,-0.11285400390625,1.0140380859375,1.263580322265625,-1.256103515625,-0.657958984375,5.573461125813604,5.999670028371838,4.052463581527311,4.0829201535417114,0.0,0.0,0.0,0.0,0.0,0.0,0.0,0.0,0.0,0.0,0.0,0.0,74.593636,1,2.0,1.0,1.0,2.0,87.96
2026-01-13 05:42:21.098,0.0,1.4916086,0.7724141,1.1791737,0.0,1.2443274,0.51379746,1.2275239,0.0,1.2177668,0.047223087,1.6585314,0.0,0.6907198,0.35642165,1.104175,0.0,0.31467324,-0.035587925,0.8681181,423.0605,826.8266,753.1893,526.4359,741.772,744.9582,743.09955,1170.3198,0.14385986328125,-0.1123046875,1.0140380859375,0.7476806640625,2.8411865234375,1.74957275390625,5.523747943637794,5.969488114822497,3.983768447655151,4.032901795293613,0.0,0.0,0.0,0.0,0.0,0.0,0.0,0.0,0.0,0.0,0.0,0.0,74.5742,1,2.0,1.0,1.0,2.0,87.96
2026-01-13 05:42:22.111,0.0,1.4916086,0.7724141,1.1791737,0.0,1.2443274,0.51379746,1.2275239,0.0,1.2177668,0.047223087,1.6585314,0.0,0.6907198,0.35642165,1.104175,0.0,0.31467324,-0.035587925,0.8681181,789.21136,816.9139,647.8667,210.29115,739.9133,742.56854,732.7443,1177.9314,0.0977783203125,-0.09210205078125,1.01275634765625,0.657958984375,3.581390380859375,0.770111083984375,5.545629068020886,5.985265717759817,3.9960060081539233,4.037296330734568,0.0,0.0,0.0,0.0,0.0,0.0,0.0,0.0,0.0,0.0,0.0,0.0,76.15208,1,2.0,1.0,1.0,2.0,87.96
2026-01-13 05:42:23.115,0.0,1.4135549,0.7724141,1.1791737,0.0,1.0427608,0.51379746,1.2275239,0.0,1.3704374,0.047223087,1.6585314,0.0,0.8114644,0.35642165,1.104175,0.0,0.21719106,-0.035587925,0.8681181,714.7775,798.7701,653.00006,561.30743,755.579,755.2249,735.66504,1075.5295,0.07989501953125,-0.0694580078125,1.026611328125,5.75714111328125,11.6339111328125,-0.889739990234375,5.580876904370217,6.01752282860072,4.033329041794817,4.065769258279093,0.0,0.0,0.0,0.0,0.0,0.0,0.0,0.0,0.0,0.0,0.0,0.0,75.73651,1,2.0,1.0,1.0,2.0,87.94
2026-01-13 05:42:23.680,,,,,,,,,,,,,,,,,,,,,,,,,,,,,,,,,,,,,,,,,,,,,,,,,,,,,,,,,,/muse/elements/blink
2026-01-13 05:42:23.965,,,,,,,,,,,,,,,,,,,,,,,,,,,,,,,,,,,,,,,,,,,,,,,,,,,,,,,,,,/muse/elements/blink
2026-01-13 05:42:24.131,0.0,1.2744292,0.7724141,1.1791737,0.0,0.865125,0.51379746,1.2275239,0.0,1.3659109,0.047223087,1.6585314,0.0,0.7430205,0.35642165,1.104175,0.0,0.26132706,-0.035587925,0.8681181,568.565,741.2409,726.1948,544.2257,511.9209,508.2036,540.8625,761.42035,-0.36737060546875,0.0010986328125,1.02752685546875,3.72344970703125,11.484375,-5.630035400390625,5.563603938678683,6.020330448465775,4.009098061655103,4.059024867081515,0.0,0.0,0.0,0.0,0.0,0.0,0.0,0.0,0.0,0.0,0.0,0.0,75.25963,1,2.0,1.0,1.0,2.0,87.94
2026-01-13 05:42:24.200,,,,,,,,,,,,,,,,,,,,,,,,,,,,,,,,,,,,,,,,,,,,,,,,,,,,,,,,,,/muse/elements/blink
2026-01-13 05:42:25.143,0.0,1.2878362,0.7724141,1.1791737,0.0,1.0160056,0.51379746,1.2275239,0.0,1.0009394,0.047223087,1.6585314,0.0,0.7111643,0.35642165,1.104175,0.0,0.3340647,-0.035587925,0.8681181,523.4267,760.1813,740.00183,676.9853,761.9514,762.2169,774.87335,1316.8864,-0.37176513671875,-0.0472412109375,0.9144287109375,-4.972076416015625,19.27520751953125,-2.041168212890625,5.607457740266552,6.053564122738002,4.056125694394773,4.095310302076628,0.0,0.0,0.0,0.0,0.0,0.0,0.0,0.0,0.0,0.0,0.0,0.0,76.149,1,2.0,1.0,1.0,2.0,87.94
2026-01-13 05:42:26.145,0.0,1.2035656,0.7724141,1.1791737,0.0,0.8737647,0.51379746,1.2275239,0.0,0.43979558,0.047223087,1.6585314,0.0,0.60590243,0.35642165,1.104175,0.0,0.11635695,-0.035587925,0.8681181,600.6043,735.3995,751.5077,672.737,480.67813,459.87915,503.77832,513.95654,-0.36273193359375,0.06109619140625,0.9739990234375,-7.52166748046875,-7.559051513671875,-7.19268798828125,5.6506096368881575,6.083715518680114,4.110355482440455,4.133091099825954,0.0,0.0,0.0,0.0,0.0,0.0,0.0,0.0,0.0,0.0,0.0,0.0,76.3506,1,2.0,1.0,1.0,2.0,87.94
2026-01-13 05:42:26.699,,,,,,,,,,,,,,,,,,,,,,,,,,,,,,,,,,,,,,,,,,,,,,,,,,,,,,,,,,/muse/elements/blink
2026-01-13 05:42:27.161,0.0,1.0380884,1.2313938,1.1791737,0.0,0.72333956,0.17165105,1.2275239,0.0,0.65183836,0.85795575,1.6585314,0.0,0.52037317,0.20435347,1.104175,0.0,0.089995936,-0.053340413,0.8681181,637.3344,712.2108,726.1948,616.0929,780.0952,774.69635,766.2882,1368.8396,-0.3394775390625,0.0740966796875,0.8746337890625,21.645355224609375,-16.396636962890625,16.979827880859375,5.622777579095439,6.083715518680114,4.078189924421238,4.129703645423551,0.0,0.0,0.0,0.0,0.0,0.0,0.0,0.0,0.0,0.0,0.0,0.0,76.4173,1,2.0,1.0,1.0,2.0,87.94
2026-01-13 05:42:28.178,0.0,1.0053139,1.3108429,1.1791737,0.0,0.66958755,0.6907743,1.2275239,0.0,0.9232536,0.56895566,1.6585314,0.0,0.38802317,0.27174664,1.104175,0.0,0.014149202,-0.11595443,0.8681181,674.94965,713.4499,733.0983,666.80707,743.01105,750.9766,755.933,1209.2627,-0.33367919921875,0.07794189453125,0.95819091796875,-5.78704833984375,7.5665283203125,-0.814971923828125,5.640691414538779,6.091955272631905,4.096897217652528,4.1384621986982335,0.0,0.0,0.0,0.0,0.0,0.0,0.0,0.0,0.0,0.0,0.0,0.0,77.28206,1,2.0,1.0,1.0,2.0,87.94
2026-01-13 05:42:29.180,1.6259931,1.0561668,1.3556817,1.7498941,1.5766159,0.64997494,0.7525522,1.257201,1.1321797,0.8126302,0.5793337,1.3787969,0.80466455,0.5210721,0.38253248,0.95853543,0.069272384,0.045121267,-0.044847965,0.46202266,683.3577,670.2588,742.92255,716.4591,739.6478,734.957,714.512,1074.7329,-0.33099365234375,-0.0157470703125,0.9788818359375,-1.31591796875,-1.9140625,-1.428070068359375,5.682958300550747,6.115942111913788,4.153293755811458,4.173099682902987,0.0,0.0,0.0,0.0,0.0,0.0,0.0,0.0,0.0,0.0,0.0,0.0,76.87004,1,1.0,1.0,1.0,1.0,87.94
2026-01-13 05:42:30.187,1.666249,0.9403021,1.0994937,1.7498941,1.6495503,0.69570225,0.4528378,1.257201,1.1321797,0.6227743,0.6218693,1.3787969,0.78273267,0.5143953,0.4250361,0.95853543,0.05070779,0.021911066,-0.020519769,0.46202266,702.82916,788.68036,738.85126,733.45233,763.456,766.9963,789.91943,1343.6154,-0.33294677734375,-0.02117919921875,0.9632568359375,1.12152099609375,-1.039276123046875,1.233673095703125,5.632573731015903,6.095647903106597,4.095005126004339,4.14789213933195,0.0,0.0,0.0,0.0,0.0,0.0,0.0,0.0,0.0,0.0,0.0,0.0,77.39436,1,1.0,1.0,1.0,1.0,87.94
2026-01-13 05:42:30.555,,,,,,,,,,,,,,,,,,,,,,,,,,,,,,,,,,,,,,,,,,,,,,,,,,,,,,,,,,/muse/elements/blink
2026-01-13 05:42:30.908,,,,,,,,,,,,,,,,,,,,,,,,,,,,,,,,,,,,,,,,,,,,,,,,,,,,,,,,,,/muse/elements/blink
2026-01-13 05:42:31.189,,,,,,,,,,,,,,,,,,,,,,,,,,,,,,,,,,,,,,,,,,,,,,,,,,,,,,,,,,/muse/elements/blink
2026-01-13 05:42:31.196,1.666249,0.9044524,1.1432438,1.7498941,1.6495503,0.6923965,0.34887624,1.257201,1.1321797,0.60536003,0.6304216,1.3787969,0.78273267,0.47055453,0.43067452,0.95853543,0.05070779,0.01132609,0.017842947,0.46202266,981.8013,712.1223,684.86237,504.22083,751.9502,750.9766,725.30975,1058.8018,-0.33013916015625,0.0050048828125,0.96636962890625,0.43365478515625,1.457977294921875,1.62994384765625,5.6349235867725245,6.091619578952388,4.095920654221205,4.144321579286174,0.0,0.0,0.0,0.0,0.0,0.0,0.0,0.0,0.0,0.0,0.0,0.0,77.835106,1,1.0,1.0,1.0,1.0,87.94
2026-01-13 05:42:31.423,,,,,,,,,,,,,,,,,,,,,,,,,,,,,,,,,,,,,,,,,,,,,,,,,,,,,,,,,,/muse/elements/blink
2026-01-13 05:42:31.559,,,,,,,,,,,,,,,,,,,,,,,,,,,,,,,,,,,,,,,,,,,,,,,,,,,,,,,,,,/muse/elements/blink
2026-01-13 05:42:32.203,1.666249,0.9044524,1.125018,1.7498941,1.6495503,0.6923965,0.36082745,1.257201,1.1321797,0.60536003,0.5857489,1.3787969,0.78273267,0.47055453,0.44641492,0.95853543,0.05070779,0.01132609,0.054606967,0.46202266,757.26056,706.81195,713.98096,875.23956,775.5814,780.6263,760.1813,1137.7495,-0.326416015625,-0.00653076171875,0.96771240234375,-0.366363525390625,-0.485992431640625,-1.55517578125,5.660588894451994,6.098882769472856,4.129795198245238,4.1569863862861505,0.0,0.0,0.0,0.0,0.0,0.0,0.0,0.0,0.0,0.0,0.0,0.0,78.757904,1,2.0,1.0,1.0,2.0,87.94
2026-01-13 05:42:33.218,1.666249,1.0862396,1.125018,1.7498941,1.6495503,0.7198948,0.36082745,1.257201,1.1321797,0.8197082,0.5857489,1.3787969,0.78273267,0.8461252,0.44641492,0.95853543,0.05070779,0.14729245,0.054606967,0.46202266,676.1887,733.0983,756.0215,760.62384,769.2089,772.8377,767.2618,1320.4266,-0.3233642578125,-0.0152587890625,0.967529296875,0.082244873046875,-0.10467529296875,-0.306549072265625,5.693181698972415,6.113805879407768,4.1723367427222655,4.181461507283695,0.0,0.0,0.0,0.0,0.0,0.0,0.0,0.0,0.0,0.0,0.0,0.0,78.959946,1,2.0,1.0,1.0,2.0,87.94
2026-01-13 05:42:34.231,1.666249,1.1002628,1.125018,1.7498941,1.6495503,0.6258473,0.36082745,1.257201,1.1321797,0.607177,0.5857489,1.3787969,0.78273267,0.6377572,0.44641492,0.95853543,0.05070779,-0.011807899,0.054606967,0.46202266,580.4248,719.7339,736.9926,541.128,478.19995,447.8423,500.41507,501.47714,-0.3240966796875,-0.0096435546875,0.97076416015625,-0.7476806640625,-0.55328369140625,-0.456085205078125,5.61206589895811,6.064764084590992,4.071537086045347,4.12036525761152,0.0,0.0,0.0,0.0,0.0,0.0,0.0,0.0,0.0,0.0,0.0,0.0,77.68318,1,2.0,1.0,1.0,2.0,87.91
2026-01-13 05:42:35.239,1.666249,0.83410734,1.1264975,1.7498941,1.6495503,0.5214235,0.27843004,1.257201,1.1321797,0.6706918,0.47447008,1.3787969,0.78273267,0.4691538,0.48970073,0.95853543,0.05070779,-0.11835267,0.0953339,0.46202266,682.8267,726.4603,747.08234,739.29376,747.17084,752.1272,763.72156,1285.8207,-0.32623291015625,-0.01812744140625,0.97265625,-0.366363525390625,-1.7047119140625,2.863616943359375,5.611760722885821,6.048284576687409,4.066165987173068,4.103672126457335,0.0,0.0,0.0,0.0,0.0,0.0,0.0,0.0,0.0,0.0,0.0,0.0,77.44203,1,2.0,1.0,1.0,2.0,87.91
2026-01-13 05:42:36.241,1.666249,0.7213947,1.0393714,1.7498941,1.6495503,0.5075477,0.56427956,1.257201,1.1321797,0.74185777,0.9042596,1.3787969,0.78273267,0.4894983,0.53846085,0.95853543,0.05070779,0.023507379,0.037508275,0.46202266,741.8605,695.57166,704.33374,557.23615,763.54456,753.4548,771.33307,1365.4764,-0.3189697265625,-0.0166015625,0.96209716796875,0.022430419921875,-0.76263427734375,-0.530853271484375,5.616979233721956,6.040136375557304,4.072208473404382,4.099552249481439,0.0,0.0,0.0,0.0,0.0,0.0,0.0,0.0,0.0,0.0,0.0,0.0,78.04527,1,2.0,1.0,1.0,2.0,87.91
2026-01-13 05:42:36.943,,,,,,,,,,,,,,,,,,,,,,,,,,,,,,,,,,,,,,,,,,,,,,,,,,,,,,,,,,/muse/elements/blink
2026-01-13 05:42:37.242,1.666249,1.1398735,0.961417,1.7498941,1.6495503,0.8599643,0.8369996,1.257201,1.1321797,0.7041919,0.94297034,1.3787969,0.78273267,0.45423627,0.5129387,0.95853543,0.05070779,0.09165181,-0.035500616,0.46202266,961.5333,562.281,694.5096,909.049,700.705,690.7923,687.3405,1222.9811,-0.31414794921875,-0.00970458984375,0.97198486328125,1.188812255859375,-1.712188720703125,0.964508056640625,5.5897575280738145,6.028081920701905,4.047367141120091,4.085819326228453,0.0,0.0,0.0,0.0,0.0,0.0,0.0,0.0,0.0,0.0,0.0,0.0,77.13222,1,2.0,1.0,1.0,2.0,87.91
2026-01-13 05:42:38.255,1.666249,1.2389593,1.0629238,1.7498941,1.6495503,0.97449714,0.9468822,1.257201,1.1321797,0.7041919,0.91914856,1.3787969,0.78273267,0.48036095,0.45556194,0.95853543,0.05070779,0.07194567,-0.11906922,0.46202266,642.73334,736.8156,745.75476,760.2698,736.6386,749.2065,758.9422,1273.4298,-0.3115234375,-0.005859375,0.96502685546875,0.01495361328125,-2.03369140625,0.4486083984375,5.581090527620819,6.007604606251341,4.015415206351477,4.051792194168276,0.0,0.0,0.0,0.0,0.0,0.0,0.0,0.0,0.0,0.0,0.0,0.0,76.1207,1,2.0,1.0,1.0,2.0,87.91
2026-01-13 05:42:39.271,1.666249,1.2389593,1.0629238,1.7498941,1.6495503,0.97449714,0.9468822,1.257201,1.1321797,0.7041919,0.91914856,1.3787969,0.78273267,0.48036095,0.45556194,0.95853543,0.05070779,0.07194567,-0.11906922,0.46202266,671.14386,762.3054,750.44556,717.4327,768.41235,759.1192,755.756,1276.085,-0.31561279296875,-0.01849365234375,0.9708251953125,-0.231781005859375,-0.6280517578125,0.538330078125,5.609410867129199,6.027898815058532,4.046970412226116,4.073368142479079,0.0,0.0,0.0,0.0,0.0,0.0,0.0,0.0,0.0,0.0,0.0,0.0,76.632774,1,2.0,1.0,1.0,2.0,87.91
2026-01-13 05:42:40.281,1.666249,1.1101986,1.0629238,1.7498941,1.6495503,0.4287794,0.9468822,1.257201,1.1321797,0.5961576,0.91914856,1.3787969,0.78273267,0.37378633,0.45556194,0.95853543,0.05070779,0.20815176,-0.11906922,0.46202266,644.5035,749.3835,761.6859,611.13654,748.0559,756.90656,751.8617,1212.6259,-0.32293701171875,-0.01251220703125,0.96075439453125,0.530853271484375,-0.179443359375,0.61309814453125,5.6551872779724865,6.0657711656295445,4.103427985599504,4.113834489664545,0.0,0.0,0.0,0.0,0.0,0.0,0.0,0.0,0.0,0.0,0.0,0.0,76.49306,1,2.0,1.0,1.0,2.0,87.91
2026-01-13 05:42:41.285,1.666249,0.6152662,1.0629238,1.7498941,1.6495503,0.25296766,0.9468822,1.257201,1.1321797,0.54001904,0.91914856,1.3787969,0.78273267,0.33393788,0.45556194,0.95853543,0.05070779,0.1921417,-0.11906922,0.46202266,693.18195,750.6226,725.7523,818.24146,743.7191,752.56976,752.56976,1260.6848,-0.31866455078125,-0.0172119140625,0.9647216796875,0.186920166015625,0.261688232421875,0.16448974609375,5.636968266456858,6.062109052762082,4.073673318551367,4.101871587630832,0.0,0.0,0.0,0.0,0.0,0.0,0.0,0.0,0.0,0.0,0.0,0.0,77.50012,1,2.0,1.0,1.0,2.0,87.91
2026-01-13 05:42:42.295,1.666249,0.6324769,1.0629238,1.7498941,1.6495503,0.27621326,0.9468822,1.257201,1.1321797,0.6557815,0.91914856,1.3787969,0.78273267,0.36193156,0.45556194,0.95853543,0.05070779,0.11438771,-0.11906922,0.46202266,713.3614,724.1592,729.7351,810.3644,787.8838,795.4068,797.531,1448.8494,-0.31915283203125,-0.02142333984375,0.96380615234375,0.216827392578125,-0.411224365234375,0.31402587890625,5.679509810933887,6.092443554347567,4.132084018787402,4.1393472093078705,0.0,0.0,0.0,0.0,0.0,0.0,0.0,0.0,0.0,0.0,0.0,0.0,77.93836,1,2.0,1.0,1.0,2.0,87.91
2026-01-13 05:42:43.307,0.98806983,0.896935,1.1294693,1.7498941,0.93816715,0.2994617,0.45908293,1.257201,0.80484974,0.46938875,0.80996853,1.3787969,0.5583943,0.31205857,0.35320908,0.95853543,0.0911323,-0.09686949,-0.12329054,0.46202266,712.9189,742.126,731.50525,855.2371,781.86536,783.724,785.3171,1449.2035,-0.31732177734375,-0.02001953125,0.9761962890625,-0.19439697265625,-0.3887939453125,-1.263580322265625,5.607732398731612,6.055456214386191,4.043949169110459,4.0915566363874785,0.0,0.0,0.0,0.0,0.0,0.0,0.0,0.0,0.0,0.0,0.0,0.0,78.657166,1,1.0,1.0,1.0,1.0,87.91
2026-01-13 05:42:44.315,1.1010404,1.0911195,1.0897621,1.7498941,0.5409465,0.37841377,0.68200845,1.257201,0.92479545,0.31036964,0.6601674,1.3787969,0.5469573,0.29566827,0.26098987,0.95853543,0.13323297,-0.09245347,-0.010285222,0.46202266,735.488,738.67426,726.2833,696.8107,727.2569,732.8328,716.9902,1450.0,-0.32073974609375,-0.02490234375,0.963623046875,0.246734619140625,-0.680389404296875,-0.2691650390625,5.614476789929189,6.049505280976564,4.048008010871897,4.085422597334477,0.0,0.0,0.0,0.0,0.0,0.0,0.0,0.0,0.0,0.0,0.0,0.0,79.955215,1,1.0,1.0,1.0,1.0,87.89
2026-01-13 05:42:45.325,1.1650424,0.89458054,0.8339978,1.7498941,0.7583502,0.54661846,0.37216228,1.257201,0.91811633,0.44715047,0.42323467,1.3787969,0.48048353,0.31146505,0.066899925,0.95853543,0.01146156,-0.32640803,-0.26721203,0.46202266,742.65704,735.134,715.39703,824.1714,658.6645,652.2035,629.5459,1285.2012,-0.3173828125,-0.017333984375,0.97027587890625,-0.2093505859375,-0.052337646484375,-0.85235595703125,5.630620604153256,6.055761390458479,4.068119114035715,4.093601316071812,0.0,0.0,0.0,0.0,0.0,0.0,0.0,0.0,0.0,0.0,0.0,0.0,80.03353,1,1.0,1.0,1.0,1.0,87.89
2026-01-13 05:42:46.339,0.663499,0.7087963,0.6667161,1.7498941,0.85785586,0.25637683,0.20493302,1.257201,0.7211117,0.45419687,0.26604977,1.3787969,0.3964314,0.26855353,0.1445069,0.95853543,-0.048563123,-0.20556913,-0.41735366,0.46202266,688.1371,703.09467,718.05225,808.06323,775.6699,776.2009,807.5322,1403.9767,-0.327392578125,-0.02801513671875,0.96405029296875,0.04486083984375,-0.366363525390625,-0.2691650390625,5.6207939346255635,6.056158119352455,4.063816131416446,4.096439453544096,0.0,0.0,0.0,0.0,0.0,0.0,0.0,0.0,0.0,0.0,0.0,0.0,78.966606,1,1.0,1.0,1.0,1.0,87.89
2026-01-13 05:42:47.341,1.5293782,0.75317925,0.37175032,1.7498941,1.2610909,0.18924128,0.46213666,1.257201,0.8567747,0.3976002,0.14634195,1.3787969,0.3614801,0.25480387,0.10829656,0.95853543,-0.11477498,-0.20240411,-0.41504642,0.46202266,740.09033,707.16595,734.51447,793.5482,514.04504,505.90247,537.9418,835.2347,-0.3238525390625,-0.025634765625,0.970458984375,0.04486083984375,0.291595458984375,0.3887939453125,5.583318312948525,6.023992561333238,4.008304603867153,4.051975299811649,0.0,0.0,0.0,0.0,0.0,0.0,0.0,0.0,0.0,0.0,0.0,0.0,78.157005,1,1.0,1.0,1.0,1.0,87.89
2026-01-13 05:42:48.352,1.4466027,1.0649198,0.50932187,1.7498941,0.8343134,0.49781373,0.340361,1.257201,0.8929193,0.63549185,0.0674728,1.3787969,0.2869696,0.11757899,0.005055388,0.95853543,-0.119307585,-0.21392559,-0.22602661,0.46202266,924.2721,726.1063,663.0898,576.8846,767.70435,777.97107,776.8205,1450.0,-0.3238525390625,-0.031494140625,0.966552734375,0.40374755859375,-1.03179931640625,0.022430419921875,5.594029993085854,6.028417614381422,4.0195961185418305,4.056858116968266,0.0,0.0,0.0,0.0,0.0,0.0,0.0,0.0,0.0,0.0,0.0,0.0,78.51596,1,1.0,1.0,1.0,1.0,87.89
2026-01-13 05:42:48.872,,,,,,,,,,,,,,,,,,,,,,,,,,,,,,,,,,,,,,,,,,,,,,,,,,,,,,,,,,/muse/elements/blink
2026-01-13 05:42:49.354,1.6167948,1.3653976,0.38091382,1.7498941,0.77048594,0.646941,-0.008738163,1.257201,0.87379223,0.63549185,-0.12753697,1.3787969,0.17888914,0.06114349,-0.058320895,0.95853543,-0.093142375,-0.038436234,-0.07478028,0.46202266,1448.2299,524.66583,541.65906,870.72577,537.7648,521.6566,586.7973,731.50525,-0.3228759765625,-0.02313232421875,0.96533203125,-0.13458251953125,-0.2392578125,-0.0,5.62357103688339,6.0509701261235485,4.0545082612116445,4.081913072503159,0.0,0.0,0.0,0.0,0.0,0.0,0.0,0.0,0.0,0.0,0.0,0.0,77.172134,1,1.0,1.0,1.0,1.0,87.89
2026-01-13 05:42:49.454,,,,,,,,,,,,,,,,,,,,,,,,,,,,,,,,,,,,,,,,,,,,,,,,,,,,,,,,,,/muse/elements/blink
2026-01-13 05:42:50.362,1.6167948,1.3653976,0.38091382,1.7498941,0.77048594,0.646941,-0.008738163,1.257201,0.87379223,0.63549185,-0.12753697,1.3787969,0.17888914,0.06114349,-0.058320895,0.95853543,-0.093142375,-0.038436234,-0.07478028,0.46202266,499.08746,716.3706,721.14996,669.5508,763.63306,773.1032,780.8033,1450.0,-0.32513427734375,-0.01849365234375,0.97296142578125,-0.112152099609375,-0.037384033203125,0.291595458984375,5.673650430345946,6.085851751186134,4.118351095534416,4.124271511336814,0.0,0.0,0.0,0.0,0.0,0.0,0.0,0.0,0.0,0.0,0.0,0.0,74.645096,1,1.0,1.0,1.0,4.0,87.85
2026-01-13 05:42:51.366,1.6167948,1.3653976,0.38091382,1.7498941,0.77048594,0.646941,-0.008738163,1.257201,0.87379223,0.63549185,-0.12753697,1.3787969,0.17888914,0.06114349,-0.058320895,0.95853543,-0.093142375,-0.038436234,-0.07478028,0.46202266,399.3408,772.6607,718.05225,600.6043,654.6817,651.761,686.27844,1003.75085,-0.3193359375,-0.01409912109375,0.9674072265625,0.097198486328125,-1.7645263671875,0.904693603515625,5.625005364423146,6.069189137639177,4.064304413132108,4.102604010204325,0.0,0.0,0.0,0.0,0.0,0.0,0.0,0.0,0.0,0.0,0.0,0.0,73.757805,1,2.0,1.0,1.0,2.0,87.85
2026-01-13 05:42:52.383,1.6167948,0.8639175,0.8628306,1.7498941,0.77048594,0.3944498,0.7562649,1.257201,0.87379223,0.8972977,0.49059117,1.3787969,0.17888914,0.61087745,0.5847413,0.95853543,-0.093142375,0.10450833,-0.06259492,0.46202266,467.75623,763.89856,771.24457,965.8701,762.2169,768.41235,777.70557,1449.5575,-0.3238525390625,-0.0238037109375,0.97021484375,0.082244873046875,0.755157470703125,-0.276641845703125,5.631139403476146,6.067449634027132,4.062870085592351,4.099216555801922,0.0,0.0,0.0,0.0,0.0,0.0,0.0,0.0,0.0,0.0,0.0,0.0,73.95771,1,2.0,1.0,1.0,2.0,87.85
2026-01-13 05:42:53.387,1.6167948,0.7615036,0.8377522,1.7498941,0.77048594,0.5809258,0.7559205,1.257201,0.87379223,0.91400045,0.42222726,1.3787969,0.17888914,0.52635276,0.58122575,0.95853543,-0.093142375,0.061072078,-0.056484967,0.46202266,558.1212,746.55133,734.77997,833.5531,775.9354,783.28143,783.6355,1447.2563,-0.3319091796875,-0.0262451171875,0.96148681640625,0.545806884765625,-0.755157470703125,0.216827392578125,5.667821567365234,6.08862885344396,4.106968028038052,4.123752712013924,0.0,0.0,0.0,0.0,0.0,0.0,0.0,0.0,0.0,0.0,0.0,0.0,73.06525,1,2.0,1.0,1.0,2.0,87.85
2026-01-13 05:42:54.397,1.6167948,0.88277304,0.6529234,1.7498941,0.77048594,0.42180383,0.45221886,1.257201,0.87379223,0.7330538,0.37176543,1.3787969,0.17888914,0.37209493,0.34516937,0.95853543,-0.093142375,-0.100888945,-0.043945592,0.46202266,736.01904,740.7984,753.54333,817.71045,795.3183,806.4701,803.54944,1450.0,-0.32421875,-0.02386474609375,0.9613037109375,0.381317138671875,-0.97198486328125,0.28411865234375,5.671880409126672,6.092290966311422,4.117557637746465,4.132694370931979,0.0,0.0,0.0,0.0,0.0,0.0,0.0,0.0,0.0,0.0,0.0,0.0,73.28691,1,2.0,1.0,1.0,2.0,87.85
2026-01-13 05:42:55.407,1.6167948,1.006532,0.94691795,1.7498941,0.77048594,0.49561253,0.53608906,1.257201,0.87379223,0.5360335,0.596326,1.3787969,0.17888914,0.43442562,0.35329515,0.95853543,-0.093142375,-0.15175566,-0.13850239,0.46202266,692.2084,743.01105,749.3835,747.34784,771.15607,740.35583,756.464,1450.0,-0.32525634765625,-0.02734375,0.97100830078125,-0.157012939453125,-0.76263427734375,-0.605621337890625,5.620214100088215,6.059454020933171,4.051822711775505,4.091648189209165,0.0,0.0,0.0,0.0,0.0,0.0,0.0,0.0,0.0,0.0,0.0,0.0,74.76169,1,2.0,1.0,1.0,2.0,87.84
2026-01-13 05:42:56.424,0.6123823,1.0116928,1.1084205,1.1994648,0.05302054,0.34840256,0.4518082,0.4823488,0.31032896,0.5247092,0.5242305,0.6692305,0.41953573,0.3009699,0.25044256,0.45745832,0.034673695,-0.26474527,-0.27261332,0.32350302,716.9902,729.02704,732.03625,739.9133,762.4824,762.2169,753.80884,1343.2614,-0.32318115234375,-0.0234375,0.9744873046875,0.4486083984375,-0.4486083984375,0.635528564453125,5.6345573754857785,6.063421309872923,4.064853730062227,4.097049805688672,0.0,0.0,0.0,0.0,0.0,0.0,0.0,0.0,0.0,0.0,0.0,0.0,75.42364,1,1.0,1.0,1.0,1.0,87.84
2026-01-13 05:42:57.431,0.86326355,0.13446245,0.9084971,0.7923547,0.0045279497,-0.049154405,0.3882125,0.54079795,0.6739169,0.37982625,0.472398,0.6796991,0.39314604,0.30273288,0.1500111,0.42865998,-0.047951005,-0.17822313,-0.2510081,0.103060834,733.9834,729.38104,729.29254,770.0055,765.49164,745.0467,739.8248,1329.7198,-0.3194580078125,-0.0225830078125,0.9677734375,0.13458251953125,-0.59814453125,0.710296630859375,5.6560722885821235,6.0747128245476,4.094120115394702,4.111789809980211,0.0,0.0,0.0,0.0,0.0,0.0,0.0,0.0,0.0,0.0,0.0,0.0,76.32867,1,1.0,1.0,1.0,1.0,87.84
2026-01-13 05:42:58.436,0.72741127,0.16158298,0.8645154,1.1270553,0.1586724,-0.06588867,-0.006881208,0.33449855,0.67914414,0.09336501,0.38431856,0.41353014,0.25663912,0.053568125,-0.06873893,0.43333483,-0.07756357,-0.35089684,-0.4056019,0.023048151,727.2569,719.8224,728.76154,787.7953,730.5317,725.7523,689.19916,1325.383,-0.31658935546875,-0.027587890625,0.96807861328125,0.58319091796875,-1.06170654296875,0.022430419921875,5.6109977827051,6.054906897456071,4.041568795746609,4.085117421262189,0.0,0.0,0.0,0.0,0.0,0.0,0.0,0.0,0.0,0.0,0.0,0.0,77.09379,1,1.0,1.0,1.0,1.0,87.84
2026-01-13 05:42:59.456,0.7322809,0.8092749,0.6722162,1.3664198,0.5439468,0.10529765,0.19188644,0.69326705,0.5728254,0.5566242,0.711297,0.831328,0.31557348,0.16872509,0.2650164,0.4703216,0.11178382,-0.2741563,-0.27289197,0.07063879,726.9914,726.8144,716.9902,692.4739,654.5047,650.16785,630.0769,1166.7795,-0.321533203125,-0.01904296875,0.962890625,-0.0299072265625,-0.2093505859375,-0.07476806640625,5.6167350928641255,6.0544796509548675,4.045993848794793,4.08642967837303,0.0,0.0,0.0,0.0,0.0,0.0,0.0,0.0,0.0,0.0,0.0,0.0,76.52641,1,1.0,1.0,1.0,1.0,87.84
2026-01-13 05:43:00.465,0.9732744,1.1253445,1.1090375,1.5100372,0.6556989,0.9130446,0.590367,0.9256363,0.34004897,0.87705874,0.74517804,0.8311841,0.35575008,0.41318873,0.46135658,0.4149805,0.17563522,0.08245803,-0.2661181,-0.07959073,811.6035,730.5317,700.705,705.1303,750.6226,766.3767,754.25134,1315.6473,-0.31951904296875,-0.01708984375,0.97308349609375,0.299072265625,-0.874786376953125,0.471038818359375,5.6345573754857785,6.062994063371718,4.065494599814033,4.097171876117589,0.0,0.0,0.0,0.0,0.0,0.0,0.0,0.0,0.0,0.0,0.0,0.0,75.7524,1,1.0,1.0,1.0,1.0,87.84
2026-01-13 05:43:01.466,0.9732744,1.0972356,1.2521458,1.5022141,0.6556989,1.132245,0.69606405,0.9947334,0.34004897,0.84722126,0.74517804,0.8311841,0.35575008,0.50038546,0.5215643,0.44758725,0.17563522,0.17167568,-0.26230142,-0.111296706,729.7351,736.9041,719.4683,719.9994,743.5421,756.55255,729.29254,1219.6179,-0.3189697265625,-0.0277099609375,0.96551513671875,0.04486083984375,-0.76263427734375,-0.306549072265625,5.660405788808621,6.077184750733138,4.1014138235224,4.11850368357056,0.0,0.0,0.0,0.0,0.0,0.0,0.0,0.0,0.0,0.0,0.0,0.0,75.73335,1,1.0,1.0,1.0,1.0,87.84
2026-01-13 05:43:02.476,1.2421849,0.52690077,1.0430398,1.5022141,0.52667755,0.06868786,0.5163309,0.9947334,0.5978909,0.33468944,0.56746703,0.8311841,0.5050503,0.17577818,0.09239641,0.44758725,0.006157905,-0.21467151,-0.29912156,-0.111296706,709.82117,739.7363,729.11554,747.8789,742.92255,751.0651,731.1512,1220.6799,-0.3118896484375,-0.022216796875,0.9697265625,0.515899658203125,-1.248626708984375,0.620574951171875,5.6207939346255635,6.059362468111485,4.053104451279117,4.09283837589109,0.0,0.0,0.0,0.0,0.0,0.0,0.0,0.0,0.0,0.0,0.0,0.0,74.801605,1,1.0,1.0,1.0,1.0,87.84
2026-01-13 05:43:03.483,0.91606563,0.6272762,0.33958644,1.5022141,0.3226362,0.20500606,-0.11983957,0.9947334,0.4749301,0.4561796,0.25334144,0.8311841,0.4730604,0.04437351,-0.09216574,0.44758725,0.064443365,-0.30824888,-0.40782282,-0.111296706,720.88446,712.0338,725.13275,790.893,759.9158,760.0928,758.0571,1320.9576,-0.3228759765625,-0.02618408203125,0.968505859375,-0.2392578125,0.16448974609375,0.179443359375,5.6171013041508715,6.049474763369335,4.043552440216485,4.08215721336099,0.0,0.0,0.0,0.0,0.0,0.0,0.0,0.0,0.0,0.0,0.0,0.0,74.05056,1,1.0,1.0,1.0,1.0,87.84
2026-01-13 05:43:04.288,,,,,,,,,,,,,,,,,,,,,,,,,,,,,,,,,,,,,,,,,,,,,,,,,,,,,,,,,,/muse/elements/blink
2026-01-13 05:43:04.496,0.8028447,1.0111698,0.5002447,1.5022141,0.28096157,0.2843744,0.07306997,0.9947334,0.3662742,0.46973422,0.18002136,0.8311841,0.44196826,0.0341539,0.016725535,0.44758725,0.0033539215,-0.5263106,-0.41093606,-0.111296706,1035.1707,794.9643,746.10876,540.2429,755.1364,773.5458,739.6478,1450.0,-0.31671142578125,-0.02301025390625,0.97283935546875,0.381317138671875,-0.538330078125,0.5682373046875,5.627202632143623,6.048345611901867,4.053623250602008,4.08240135421882,0.0,0.0,0.0,0.0,0.0,0.0,0.0,0.0,0.0,0.0,0.0,0.0,75.040886,1,1.0,1.0,1.0,1.0,87.84
2026-01-13 05:43:04.511,,,,,,,,,,,,,,,,,,,,,,,,,,,,,,,,,,,,,,,,,,,,,,,,,,,,,,,,,,/muse/elements/blink
2026-01-13 05:43:04.639,,,,,,,,,,,,,,,,,,,,,,,,,,,,,,,,,,,,,,,,,,,,,,,,,,,,,,,,,,/muse/elements/blink
2026-01-13 05:43:05.512,0.7708348,1.3255774,0.5752222,1.5022141,0.28689033,0.23304297,0.2031645,0.9947334,0.34079334,0.1496685,0.12786867,0.8311841,0.48551238,0.08891462,0.15661547,0.44758725,-0.037710175,-0.57064015,-0.35338956,-0.111296706,1173.6831,587.1513,645.65405,935.4239,744.6042,749.56055,732.6558,1229.0881,-0.31475830078125,-0.029052734375,0.97027587890625,0.216827392578125,-0.366363525390625,-0.2392578125,5.657598168943566,6.066595141024724,4.093021481534463,4.105045418782634,0.0,0.0,0.0,0.0,0.0,0.0,0.0,0.0,0.0,0.0,0.0,0.0,75.43208,1,1.0,1.0,1.0,4.0,87.84
2026-01-13 05:43:05.544,,,,,,,,,,,,,,,,,,,,,,,,,,,,,,,,,,,,,,,,,,,,,,,,,,,,,,,,,,/muse/elements/blink
2026-01-13 05:43:05.911,,,,,,,,,,,,,,,,,,,,,,,,,,,,,,,,,,,,,,,,,,,,,,,,,,,,,,,,,,/muse/elements/blink
2026-01-13 05:43:06.523,0.7708348,1.3255774,0.5752222,1.5022141,0.28689033,0.23304297,0.2031645,0.9947334,0.34079334,0.1496685,0.12786867,0.8311841,0.48551238,0.08891462,0.15661547,0.44758725,-0.037710175,-0.57064015,-0.35338956,-0.111296706,546.26135,720.1764,641.0517,654.06213,757.6146,754.33984,744.4271,1227.9375,-0.3167724609375,-0.0263671875,0.96807861328125,0.1495361328125,0.538330078125,-0.35888671875,5.6005302434256015,6.034276994969363,4.024051689197244,4.063663543380302,0.0,0.0,0.0,0.0,0.0,0.0,0.0,0.0,0.0,0.0,0.0,0.0,74.99737,1,2.0,1.0,1.0,2.0,87.84
2026-01-13 05:43:07.532,0.7708348,1.3255774,0.5752222,1.5022141,0.28689033,0.23304297,0.2031645,0.9947334,0.34079334,0.1496685,0.12786867,0.8311841,0.48551238,0.08891462,0.15661547,0.44758725,-0.037710175,-0.57064015,-0.35338956,-0.111296706,436.24792,780.9803,737.4351,456.3389,614.7653,594.8514,597.5951,998.529,-0.30853271484375,-0.027099609375,0.96966552734375,0.31402587890625,-1.48040771484375,0.037384033203125,5.613835920177384,6.033697160432014,4.034549746083971,4.062229215840546,0.0,0.0,0.0,0.0,0.0,0.0,0.0,0.0,0.0,0.0,0.0,0.0,75.73048,1,2.0,1.0,1.0,2.0,87.82
2026-01-13 05:43:08.395,,,,,,,,,,,,,,,,,,,,,,,,,,,,,,,,,,,,,,,,,,,,,,,,,,,,,,,,,,/muse/elements/blink
2026-01-13 05:43:08.539,0.7708348,1.1035211,0.5752222,1.5022141,0.28689033,0.10073245,0.2031645,0.9947334,0.34079334,0.39795125,0.12786867,0.8311841,0.48551238,0.31307223,0.15661547,0.44758725,-0.037710175,0.19827192,-0.35338956,-0.111296706,494.66214,750.18005,712.8304,524.22327,773.9883,783.9895,750.9766,1190.4993,-0.3099365234375,-0.02362060546875,0.96832275390625,-0.201873779296875,-0.0299072265625,-0.441131591796875,5.641576425148416,6.049627351405479,4.068027561214029,4.083042223970627,0.0,0.0,0.0,0.0,0.0,0.0,0.0,0.0,0.0,0.0,0.0,0.0,75.87879,1,2.0,1.0,1.0,2.0,87.82
2026-01-13 05:43:09.557,0.7708348,0.7816324,0.5752222,1.5022141,0.28689033,0.16751467,0.2031645,0.9947334,0.34079334,0.2709721,0.12786867,0.8311841,0.48551238,0.29664552,0.15661547,0.44758725,-0.037710175,0.082344785,-0.35338956,-0.111296706,624.76654,745.0467,734.2489,659.461,489.44028,472.18152,495.19318,630.5195,-0.31512451171875,-0.0225830078125,0.9617919921875,0.657958984375,-0.22430419921875,0.530853271484375,5.6304985337243405,6.054327062918723,4.06024557137067,4.0862770903368855,0.0,0.0,0.0,0.0,0.0,0.0,0.0,0.0,0.0,0.0,0.0,0.0,74.83999,1,2.0,1.0,1.0,2.0,87.82
2026-01-13 05:43:10.567,0.7708348,0.57524455,0.7244464,1.5022141,0.28689033,0.15722942,0.2641272,0.9947334,0.34079334,0.24693112,0.571878,0.8311841,0.48551238,0.31166556,0.3365534,0.44758725,-0.037710175,-0.0047346107,-0.2002328,-0.111296706,688.93365,740.9754,738.85126,488.20117,780.8033,787.4412,764.6066,1234.2214,-0.310546875,-0.02734375,0.97723388671875,0.28411865234375,-0.201873779296875,-0.680389404296875,5.604863743652099,6.035406146436831,4.022647879264716,4.058261926900794,0.0,0.0,0.0,0.0,0.0,0.0,0.0,0.0,0.0,0.0,0.0,0.0,74.57899,1,2.0,1.0,1.0,2.0,87.82
2026-01-13 05:43:11.568,1.0996991,0.6160262,1.0595345,1.5022141,0.4931205,0.08151196,0.524277,0.9947334,0.7786223,0.22711392,0.4917196,0.8311841,0.41163778,0.26212683,0.0959935,0.44758725,0.2747822,-0.057093244,-0.17458607,-0.111296706,711.9453,736.28455,715.48553,620.69525,774.2538,779.9182,752.2157,1386.6294,-0.31329345703125,-0.02667236328125,0.96728515625,0.10467529296875,-0.456085205078125,-0.299072265625,5.624364494671339,6.04022792837899,4.038150823736976,4.0633278497007845,0.0,0.0,0.0,0.0,0.0,0.0,0.0,0.0,0.0,0.0,0.0,0.0,75.058205,1,1.0,1.0,1.0,1.0,87.82
2026-01-13 05:43:12.575,0.837352,0.5296997,0.7610544,1.5022141,0.34614998,0.22768529,0.3039502,0.9947334,0.8774595,0.2690846,0.41682622,0.8311841,0.2966603,0.18281387,-0.008792143,0.44758725,0.19081046,-0.1752279,-0.21180901,-0.111296706,713.89246,733.8949,719.9109,682.29565,753.80884,752.3927,729.5581,1359.0155,-0.31109619140625,-0.018310546875,0.9732666015625,-0.2093505859375,-0.538330078125,-0.246734619140625,5.652074482035143,6.059331950504256,4.073276589657392,4.083896716973035,0.0,0.0,0.0,0.0,0.0,0.0,0.0,0.0,0.0,0.0,0.0,0.0,74.11277,1,1.0,1.0,1.0,1.0,87.80
2026-01-13 05:43:13.577,0.503251,0.256703,0.68330586,1.5022141,0.39490783,0.1275018,0.2783812,0.9947334,0.90830934,0.28426516,0.32612598,0.8311841,0.4289063,-0.0055698813,0.11129198,0.44758725,0.12013053,-0.356138,-0.23863375,-0.111296706,726.9029,714.7775,729.20404,771.59863,735.134,726.9914,715.30853,1094.0273,-0.3165283203125,-0.0194091796875,0.97320556640625,-0.19439697265625,-0.13458251953125,-0.082244873046875,5.694097227189281,6.087499701976492,4.127933624204277,4.119205588536824,0.0,0.0,0.0,0.0,0.0,0.0,0.0,0.0,0.0,0.0,0.0,0.0,73.01655,1,1.0,1.0,1.0,1.0,87.80
2026-01-13 05:43:14.579,0.89780295,0.39339545,0.5063279,1.5022141,0.273941,0.0011284743,-0.027641857,0.9947334,0.7042338,0.2507456,0.24664424,0.8311841,0.43397433,0.08880628,0.21400632,0.44758725,0.049830664,-0.25766933,-0.18333216,-0.111296706,704.8648,712.2108,737.1696,735.311,750.00305,751.7732,742.0375,1205.0144,-0.31610107421875,-0.03106689453125,0.96685791015625,-0.007476806640625,-0.889739990234375,0.396270751953125,5.6342216818062605,6.0641842500536445,4.06183248694657,4.090915766635672,0.0,0.0,0.0,0.0,0.0,0.0,0.0,0.0,0.0,0.0,0.0,0.0,73.17458,1,1.0,1.0,1.0,1.0,87.80
2026-01-13 05:43:15.589,0.98434436,0.6566874,0.8219468,1.5022141,0.6349168,0.035432734,0.12013542,0.9947334,0.625346,0.3464557,0.17060077,0.8311841,0.2767389,0.035683934,0.09304381,0.44758725,-0.0075115557,-0.21598028,-0.2826874,-0.111296706,724.4247,724.1592,717.4327,719.8224,752.56976,756.72955,762.925,1272.8987,-0.315673828125,-0.02960205078125,0.9715576171875,-0.37384033203125,0.067291259765625,-0.785064697265625,5.623265860811101,6.049840974656081,4.04019550342131,4.07199485015378,0.0,0.0,0.0,0.0,0.0,0.0,0.0,0.0,0.0,0.0,0.0,0.0,73.73369,1,1.0,1.0,1.0,1.0,87.80
2026-01-13 05:43:16.590,1.3127027,1.0010598,0.81220406,0.7681638,0.7019407,0.49801192,-0.052511662,0.9746172,0.61901116,0.37034714,0.4109549,0.9837398,0.5526279,-0.011399917,0.011542972,0.29033262,-0.07807992,-0.19467245,-0.2874109,0.05766059,723.1856,705.2188,725.8408,754.8709,785.4941,787.2642,753.4548,1174.3911,-0.31829833984375,-0.04144287109375,0.96722412109375,0.46356201171875,-0.478515625,0.829925537109375,5.639104498962878,6.057409341248838,4.058445032544167,4.083438952864602,0.0,0.0,0.0,0.0,0.0,0.0,0.0,0.0,0.0,0.0,0.0,0.0,72.94492,1,1.0,1.0,1.0,1.0,87.80
2026-01-13 05:43:17.600,1.3127027,1.1772107,1.0786105,0.9975367,0.7019407,0.69983834,0.2870352,0.86829734,0.61901116,0.331327,0.39266136,1.2891452,0.5526279,-0.063431256,-0.1984574,0.3572311,-0.07807992,-0.2024763,-0.299221,0.19501956,825.32196,783.36993,712.4763,709.64417,755.3134,748.3214,751.5962,1286.7057,-0.3226318359375,-0.04180908203125,0.96502685546875,-0.1495361328125,-0.40374755859375,-1.24114990234375,5.652440693321889,6.064489426125933,4.077549054669432,4.092899411105548,0.0,0.0,0.0,0.0,0.0,0.0,0.0,0.0,0.0,0.0,0.0,0.0,72.198044,1,1.0,1.0,1.0,1.0,87.80
2026-01-13 05:43:18.607,1.3127027,1.2110329,1.0646312,0.99405885,0.7019407,0.6857026,0.25825462,0.6587451,0.61901116,0.28871116,0.24029705,1.1949848,0.5526279,-0.102335066,-0.2976195,0.3589097,-0.07807992,-0.22574714,-0.35967982,0.23750447,781.95386,712.2993,698.2268,736.9041,786.46765,785.4056,783.8125,1354.1476,-0.3272705078125,-0.02734375,0.9700927734375,0.112152099609375,-0.426177978515625,0.49346923828125,5.665990510931502,6.067571704456047,4.095462890112772,4.097965333905538,0.0,0.0,0.0,0.0,0.0,0.0,0.0,0.0,0.0,0.0,0.0,0.0,73.406525,1,1.0,1.0,1.0,1.0,87.78
2026-01-13 05:43:19.614,1.3127027,1.2110329,1.1109952,0.99405885,0.7019407,0.6857026,1.0834438,0.6587451,0.61901116,0.28871116,0.9471366,1.1949848,0.5526279,-0.102335066,0.44010752,0.3589097,-0.07807992,-0.22574714,-0.17096394,0.23750447,682.03015,736.28455,732.21326,732.12476,518.5589,496.96332,537.0567,522.2761,-0.32086181640625,-0.0357666015625,0.96563720703125,0.31402587890625,-0.605621337890625,0.40374755859375,5.594487757194288,6.023687385260949,4.008274086259924,4.045993848794793,0.0,0.0,0.0,0.0,0.0,0.0,0.0,0.0,0.0,0.0,0.0,0.0,74.13132,1,1.0,1.0,1.0,1.0,87.78
2026-01-13 05:43:20.620,1.3127027,1.2310311,1.3914114,0.99405885,0.7019407,0.77209944,0.90601337,0.6587451,0.61901116,0.7342899,0.9341737,1.1949848,0.5526279,0.31756014,0.36015934,0.3589097,-0.07807992,0.099161915,-0.13966677,0.23750447,694.1555,709.0246,715.5741,732.03625,753.1893,750.9766,732.30176,1355.7407,-0.32611083984375,-0.03680419921875,0.9625244140625,-0.19439697265625,-0.441131591796875,0.34393310546875,5.607274634623179,6.025976205803114,4.015323653529791,4.044620556469495,0.0,0.0,0.0,0.0,0.0,0.0,0.0,0.0,0.0,0.0,0.0,0.0,72.883606,1,2.0,1.0,1.0,2.0,87.78
2026-01-13 05:43:21.620,1.1986383,1.1622324,1.552911,1.1546172,1.268037,0.51561797,0.6491665,0.86085105,0.8833542,0.734236,0.6685389,0.76231223,0.75257164,0.17673072,0.25290957,0.59524083,0.27123743,0.2258582,-0.1755427,0.058637824,698.1383,699.3774,733.0098,784.078,753.72034,745.3122,752.1272,1286.3517,-0.32305908203125,-0.03375244140625,0.96905517578125,0.3289794921875,-0.814971923828125,0.560760498046875,5.601964570965357,6.018957156140476,4.0076026989008895,4.038455999809265,0.0,0.0,0.0,0.0,0.0,0.0,0.0,0.0,0.0,0.0,0.0,0.0,72.04419,1,1.0,1.0,1.0,1.0,87.78
2026-01-13 05:43:22.635,0.86050004,0.67220134,0.9293723,1.499392,0.4297455,0.036914248,0.09007419,0.91884184,0.68755966,-0.034160092,0.3129916,0.9156363,0.41917488,0.109910764,0.048451517,0.66743386,0.08149114,-0.01761385,-0.1592927,0.18535814,730.7087,733.45233,758.5882,747.25934,727.0799,725.30975,725.39825,1118.1011,-0.3289794921875,-0.0457763671875,0.96234130859375,0.142059326171875,-0.246734619140625,-0.55328369140625,5.635198245237584,6.039403952983811,4.051395465274301,4.065219941348974,0.0,0.0,0.0,0.0,0.0,0.0,0.0,0.0,0.0,0.0,0.0,0.0,72.330605,1,1.0,1.0,1.0,1.0,87.78
2026-01-13 05:43:23.652,1.0689442,0.9496031,1.0894865,1.4912454,0.5000585,0.16798483,0.24207467,0.78988296,0.7070873,0.26079237,0.3383369,0.9547827,0.3834873,0.10653848,-0.078696534,0.71482563,-0.05458219,-0.13523512,-0.18693066,0.09786769,679.552,716.3706,732.7443,741.4179,759.7388,762.3054,749.64905,1099.3378,-0.333984375,-0.03863525390625,0.968994140625,-0.127105712890625,0.13458251953125,0.31402587890625,5.67380301838209,6.06589323605846,4.099613284695897,4.096469971151325,0.0,0.0,0.0,0.0,0.0,0.0,0.0,0.0,0.0,0.0,0.0,0.0,71.680756,1,1.0,1.0,1.0,1.0,87.78
2026-01-13 05:43:24.663,1.1817805,1.0848856,1.2451757,1.4742602,0.61041445,0.6329826,0.373692,0.86252904,0.6802217,0.57223237,0.6649293,0.962768,0.42877266,0.053038333,-0.01788392,0.67357844,0.037846126,-0.24809386,-0.26653233,0.02575745,778.1481,732.03625,702.74066,705.1303,508.46915,498.73343,516.1692,704.33374,-0.33184814453125,-0.04791259765625,0.961181640625,0.31402587890625,-1.03179931640625,0.665435791015625,5.608525856519562,6.040746727701881,4.021457692582791,4.058994349474286,0.0,0.0,0.0,0.0,0.0,0.0,0.0,0.0,0.0,0.0,0.0,0.0,69.777336,1,1.0,1.0,1.0,1.0,87.74
2026-01-13 05:43:25.676,1.1817805,0.6590384,0.96127623,1.4747258,0.61041445,0.3362745,0.1754256,0.9315372,0.6802217,0.56180906,0.565125,0.7848144,0.42877266,0.19909227,-0.095916994,0.58951616,0.037846126,-0.31516752,-0.37553495,-0.10060529,696.98773,725.30975,719.9109,770.97906,774.1653,775.9354,791.8666,1343.2614,-0.33563232421875,-0.0404052734375,0.966796875,0.04486083984375,0.37384033203125,0.2392578125,5.6030021696111385,6.034002336504304,4.013034832987626,4.052097370240564,0.0,0.0,0.0,0.0,0.0,0.0,0.0,0.0,0.0,0.0,0.0,0.0,69.36749,1,1.0,1.0,1.0,1.0,87.74
2026-01-13 05:43:26.684,1.1817805,0.72545916,0.8848102,1.4747258,0.61041445,0.047199544,0.19907746,0.9315372,0.6802217,0.27506483,0.13846959,0.7848144,0.42877266,0.22766598,-0.101877265,0.58951616,0.037846126,-0.24424154,-0.21504681,-0.10060529,711.41425,722.30054,729.29254,725.8408,774.3423,773.9883,773.1032,1362.6442,-0.33221435546875,-0.040283203125,0.9569091796875,0.216827392578125,-0.949554443359375,-0.07476806640625,5.619420642300264,6.041631738311518,4.031436950146627,4.062534391912834,0.0,0.0,0.0,0.0,0.0,0.0,0.0,0.0,0.0,0.0,0.0,0.0,70.21304,1,1.0,1.0,1.0,1.0,87.74
2026-01-13 05:43:27.690,0.9471812,0.6915068,0.62584674,1.2123863,0.6342698,0.1379236,0.052624933,0.21568082,0.7519361,0.36294597,0.18275551,0.752336,0.5467884,0.10263578,0.047491495,0.45430642,-0.085347794,-0.23127046,-0.34736568,-0.03608267,703.18317,723.4511,734.69147,724.95575,781.51135,777.88257,766.2882,1364.5913,-0.328369140625,-0.0408935546875,0.9635009765625,0.485992431640625,-0.710296630859375,0.201873779296875,5.634130128984574,6.0504208091934295,4.049900102520087,4.075290751734497,0.0,0.0,0.0,0.0,0.0,0.0,0.0,0.0,0.0,0.0,0.0,0.0,69.97333,1,1.0,1.0,1.0,1.0,87.74
2026-01-13 05:43:28.702,0.64520574,0.39051297,0.5841985,1.1825457,0.56468964,0.058380507,-0.10893213,0.7174793,0.7314656,0.23248301,0.2722207,0.7637738,0.36841577,-0.13983229,-0.068790406,0.2656106,-0.12989384,-0.29950944,-0.38639647,-0.16648884,735.75354,739.20526,699.55444,770.53656,591.66516,581.0444,604.5871,648.66327,-0.33074951171875,-0.03668212890625,0.9656982421875,-0.10467529296875,-0.560760498046875,-0.4486083984375,5.659581813413442,6.0675411868488185,4.087345206589895,4.099399661445295,0.0,0.0,0.0,0.0,0.0,0.0,0.0,0.0,0.0,0.0,0.0,0.0,68.747826,1,1.0,1.0,1.0,1.0,87.74
2026-01-13 05:43:29.712,0.9388839,0.90691334,0.63289195,1.2214762,0.66987824,0.3366749,-0.074511886,0.8394425,0.86216104,0.48816258,0.10270855,0.770027,0.28166613,-0.042600352,-0.16603844,0.31613562,-0.1691431,-0.30551437,-0.47523016,-0.05133399,744.3386,748.3214,715.6626,716.7247,749.3835,754.6939,749.91455,1224.7512,-0.3316650390625,-0.02740478515625,0.96429443359375,0.695343017578125,-0.37384033203125,1.92901611328125,5.697911928092888,6.088384712586128,4.138309610662089,4.1282388002765655,0.0,0.0,0.0,0.0,0.0,0.0,0.0,0.0,0.0,0.0,0.0,0.0,68.2601,1,1.0,1.0,1.0,1.0,87.73
2026-01-13 05:43:30.718,1.1495885,1.2732745,0.5796327,1.3809875,0.9505843,0.5611323,-0.04353815,0.6520156,1.1089616,0.5789294,-0.115882955,1.0172487,0.53410953,0.05173351,-0.14489043,0.41913792,-0.1273823,-0.2560137,-0.5316351,-0.047838096,726.0178,718.22925,720.88446,760.0928,625.03204,604.49854,605.9147,1047.2075,-0.33636474609375,-0.02105712890625,0.9622802734375,-0.04486083984375,-0.657958984375,-0.291595458984375,5.650457048852013,6.069494313711465,4.086124502300741,4.108280285148893,0.0,0.0,0.0,0.0,0.0,0.0,0.0,0.0,0.0,0.0,0.0,0.0,68.9402,1,1.0,1.0,1.0,1.0,87.73
2026-01-13 05:43:31.726,1.1305499,1.1192688,0.35440424,1.5345204,0.6588755,0.104113266,0.27268955,0.5764806,0.81099635,0.32230347,0.27765244,1.0149664,0.10777589,-0.15322573,0.061209563,0.45940617,-0.2634562,-0.42470697,-0.4376269,-0.04838147,696.6337,709.82117,715.39703,743.45355,718.6718,746.28577,741.1524,1255.7285,-0.3387451171875,-0.0347900390625,0.96820068359375,0.127105712890625,-0.859832763671875,-0.022430419921875,5.607274634623179,6.038671530410319,4.031772643826145,4.069309300717641,0.0,0.0,0.0,0.0,0.0,0.0,0.0,0.0,0.0,0.0,0.0,0.0,69.05315,1,1.0,1.0,1.0,1.0,87.73
2026-01-13 05:43:32.733,0.9805395,0.6501996,0.41960815,0.94472504,0.5708425,0.08757478,0.037018046,0.2502327,0.8414959,0.22722147,0.2378272,0.6781115,0.27966443,-0.101597376,-0.12981369,0.29043964,-0.15814565,-0.3568012,-0.40412894,-0.23667958,719.2028,719.7339,725.39825,734.1604,769.74,760.53534,773.1917,1313.6117,-0.34002685546875,-0.0333251953125,0.95703125,1.016845703125,0.650482177734375,-0.19439697265625,5.610387430560523,6.031225234246477,4.0328102424719265,4.061893522161028,0.0,0.0,0.0,0.0,0.0,0.0,0.0,0.0,0.0,0.0,0.0,0.0,69.37321,1,1.0,1.0,1.0,1.0,87.73
2026-01-13 05:43:33.747,0.4414659,0.37168372,0.45786405,0.9866823,0.23221087,0.073910415,-0.13661477,0.416429,0.7719076,0.5108403,0.30773303,0.9838172,0.37132436,0.10892129,-0.115051225,0.32649127,-0.118349284,-0.23628034,-0.46853852,-0.23949619,721.504,716.9017,726.1063,738.58575,758.41113,754.5169,757.7916,1255.64,-0.32452392578125,-0.03582763671875,0.9642333984375,-0.58319091796875,-0.246734619140625,-0.246734619140625,5.62515795245929,6.034795794292254,4.051578570917674,4.073429177693536,0.0,0.0,0.0,0.0,0.0,0.0,0.0,0.0,0.0,0.0,0.0,0.0,69.899704,1,1.0,1.0,1.0,1.0,87.73
2026-01-13 05:43:34.765,1.0799713,0.3215929,0.42025974,1.1197172,0.29907608,-0.2384301,-0.033074703,0.718844,0.73729557,0.3070773,0.12553576,1.0026591,0.37630582,-0.016315239,-0.07886806,0.4834627,-0.12669528,-0.45814267,-0.6868414,-0.10058822,718.14075,708.1395,719.9994,729.38104,750.7996,748.6755,755.3134,1233.6904,-0.33831787109375,-0.042724609375,0.96185302734375,0.2691650390625,-0.94207763671875,0.291595458984375,5.656804711155616,6.052557041699449,4.094883055575424,4.0980874043344535,0.0,0.0,0.0,0.0,0.0,0.0,0.0,0.0,0.0,0.0,0.0,0.0,69.55004,1,1.0,1.0,1.0,1.0,87.73
2026-01-13 05:43:35.773,1.1469506,0.68809736,0.42117092,1.1560235,0.34664845,0.3567604,-0.09550025,0.5343285,0.6173714,0.63148564,0.27968165,0.7730644,0.25429407,0.040997792,-0.1762756,0.36416695,-0.30305913,-0.48200336,-0.7252422,-0.14076836,709.55566,720.88446,745.3122,774.78485,761.15485,758.9422,753.98584,1229.3536,-0.3349609375,-0.040771484375,0.96173095703125,0.650482177734375,-0.112152099609375,-0.59814453125,5.675054240278473,6.063695968337982,4.117252461674177,4.111362563479007,0.0,0.0,0.0,0.0,0.0,0.0,0.0,0.0,0.0,0.0,0.0,0.0,69.82117,1,1.0,1.0,1.0,1.0,87.71
2026-01-13 05:43:36.787,1.121057,1.3387182,0.74020267,1.0999335,0.56846404,0.96759737,0.019944306,0.63771147,0.81413287,0.75608027,0.29826522,0.85963374,0.09746258,0.18772852,-0.12734528,0.32293004,-0.29329497,-0.3913979,-0.5582453,-0.014676886,801.5138,747.7019,732.21326,720.79596,729.38104,731.50525,710.88324,1301.2208,-0.3260498046875,-0.03338623046875,0.96307373046875,0.336456298828125,-1.495361328125,0.10467529296875,5.593938440264168,6.019689578713969,4.025730157594831,4.05862813818754,0.0,0.0,0.0,0.0,0.0,0.0,0.0,0.0,0.0,0.0,0.0,0.0,70.919365,1,1.0,1.0,1.0,1.0,87.71
2026-01-13 05:43:37.506,,,,,,,,,,,,,,,,,,,,,,,,,,,,,,,,,,,,,,,,,,,,,,,,,,,,,,,,,,/muse/elements/blink
2026-01-13 05:43:37.794,1.3104179,1.5372156,0.98448974,1.0318319,0.8218,1.1554613,-0.07310386,0.7033116,0.8123287,0.74348617,-0.16060792,0.94829327,0.19747771,0.33615455,-0.03540094,0.57292175,-0.23037237,-0.34146106,-0.3771832,-0.15882914,809.3023,794.4332,808.8598,754.8709,754.9594,747.34784,768.14685,1275.731,-0.32940673828125,-0.04583740234375,0.96575927734375,-0.022430419921875,-0.0897216796875,-0.5682373046875,5.592870324011158,6.008886345754953,4.015995040888825,4.045291943828529,0.0,0.0,0.0,0.0,0.0,0.0,0.0,0.0,0.0,0.0,0.0,0.0,70.22182,1,1.0,1.0,1.0,1.0,87.71
2026-01-13 05:43:38.634,,,,,,,,,,,,,,,,,,,,,,,,,,,,,,,,,,,,,,,,,,,,,,,,,,,,,,,,,,/muse/elements/blink
2026-01-13 05:43:38.800,1.3104179,1.5372156,0.98448974,0.9159182,0.8218,1.1554613,-0.07310386,0.7306055,0.8123287,0.74348617,-0.16060792,0.94829327,0.19747771,0.33615455,-0.03540094,0.5385431,-0.23037237,-0.34146106,-0.3771832,-0.21822079,706.81195,753.72034,775.31586,850.36926,758.41113,757.43756,741.949,1066.3248,-0.3349609375,-0.04248046875,0.9586181640625,0.2392578125,-0.73272705078125,0.2691650390625,5.590703573897909,6.005437856138093,4.013889325990034,4.042636911999619,0.0,0.0,0.0,0.0,0.0,0.0,0.0,0.0,0.0,0.0,0.0,0.0,69.71171,1,1.0,1.0,1.0,1.0,87.71
2026-01-13 05:43:39.815,1.3104179,1.5372156,0.98448974,0.9159182,0.8218,1.1554613,-0.07310386,0.7306055,0.8123287,0.74348617,-0.16060792,0.94829327,0.19747771,0.33615455,-0.03540094,0.5385431,-0.23037237,-0.34146106,-0.3771832,-0.21822079,678.5784,757.17206,739.02826,584.76166,748.8525,751.8617,747.9674,1205.9879,-0.33538818359375,-0.03594970703125,0.96514892578125,-0.059814453125,-0.34393310546875,-0.381317138671875,5.607305152230408,6.01032067329471,4.033695253081563,4.052249958276709,0.0,0.0,0.0,0.0,0.0,0.0,0.0,0.0,0.0,0.0,0.0,0.0,70.3455,1,2.0,1.0,1.0,2.0,87.71
2026-01-13 05:43:40.826,1.3104179,1.0081182,1.2546718,0.9159182,0.8218,0.5489336,0.4674154,0.7306055,0.8123287,0.7904303,0.41274685,0.94829327,0.19747771,0.3383049,0.26210916,0.5385431,-0.23037237,-0.14148186,-0.22447921,-0.21822079,723.5397,740.00183,687.6061,677.95886,494.30814,462.35733,508.82318,599.0997,-0.33056640625,-0.04412841796875,0.9605712890625,-0.0,-0.261688232421875,-0.0897216796875,5.617223374579787,6.014501585485063,4.043949169110459,4.054752402069475,0.0,0.0,0.0,0.0,0.0,0.0,0.0,0.0,0.0,0.0,0.0,0.0,70.77325,1,2.0,1.0,1.0,2.0,87.70
2026-01-13 05:43:41.831,1.3104179,1.2006147,1.1855967,0.9159182,0.8218,0.6204441,0.4200849,0.7306055,0.8123287,0.7986892,0.5157852,0.94829327,0.19747771,0.16598344,0.26262477,0.5385431,-0.23037237,-0.21530505,-0.3566532,-0.21822079,786.8217,727.4339,669.9933,652.115,769.2089,776.3779,781.0688,1366.096,-0.3323974609375,-0.045654296875,0.963623046875,-0.112152099609375,0.157012939453125,-0.201873779296875,5.659703883842358,6.040838280523568,4.098056886727225,4.087101065732065,0.0,0.0,0.0,0.0,0.0,0.0,0.0,0.0,0.0,0.0,0.0,0.0,69.8935,1,2.0,1.0,1.0,2.0,87.70
2026-01-13 05:43:42.843,1.3104179,1.2172093,1.1503603,0.9159182,0.8218,0.555907,0.43311414,0.7306055,0.8123287,0.6805141,0.472657,0.94829327,0.19747771,0.0018348948,0.25698686,0.5385431,-0.23037237,-0.35112256,-0.5110965,-0.21822079,718.05225,724.3362,703.89124,730.1776,783.0159,774.69635,762.571,1366.627,-0.33441162109375,-0.0478515625,0.9573974609375,0.082244873046875,-0.949554443359375,0.46356201171875,5.597478482702716,6.01483727916458,4.024204277233388,4.053196004100803,0.0,0.0,0.0,0.0,0.0,0.0,0.0,0.0,0.0,0.0,0.0,0.0,68.484795,1,2.0,1.0,1.0,2.0,87.70
2026-01-13 05:43:43.860,1.2645847,0.9074174,1.105071,0.9159182,1.0296286,0.7348897,0.41149282,0.7306055,1.2500062,0.67800134,0.38790974,0.94829327,0.72377545,0.20992763,0.095049165,0.5385431,-0.07455053,-0.20260987,-0.2962854,-0.21822079,1401.4985,879.7534,761.42035,781.2458,739.38226,737.9662,717.4327,1307.5933,-0.32806396484375,-0.0408935546875,0.9647216796875,0.022430419921875,-0.680389404296875,-0.351409912109375,5.579778270509978,6.0015621200200275,3.998447416732232,4.03268817204301,0.0,0.0,0.0,0.0,0.0,0.0,0.0,0.0,0.0,0.0,0.0,0.0,68.24712,1,1.0,1.0,1.0,1.0,87.70
2026-01-13 05:43:44.742,,,,,,,,,,,,,,,,,,,,,,,,,,,,,,,,,,,,,,,,,,,,,,,,,,,,,,,,,,/muse/elements/blink
2026-01-13 05:43:44.873,1.105167,0.89876693,1.1638644,0.9159182,0.85071814,0.7449202,0.3162507,0.7306055,1.1490773,0.6545288,0.2568239,0.94829327,0.7573944,0.22198401,0.08947423,0.5385431,-0.046257526,-0.24173903,-0.4197106,-0.21822079,1039.6844,611.8446,648.3092,613.1722,692.4739,685.12787,673.53357,1217.4938,-0.33563232421875,-0.04638671875,0.96026611328125,0.0299072265625,-0.07476806640625,0.157012939453125,5.586858355387073,5.999853134015211,4.003086093031018,4.031711608611687,0.0,0.0,0.0,0.0,0.0,0.0,0.0,0.0,0.0,0.0,0.0,0.0,68.56196,1,1.0,1.0,1.0,1.0,87.70
2026-01-13 05:43:45.882,1.105167,0.89876693,1.1638644,0.9159182,0.85071814,0.7449202,0.3162507,0.7306055,1.1490773,0.6545288,0.2568239,0.94829327,0.7573944,0.22198401,0.08947423,0.5385431,-0.046257526,-0.24173903,-0.4197106,-0.21822079,539.8004,727.0799,707.697,455.54233,752.4812,747.7904,753.54333,1229.7961,-0.3333740234375,-0.0428466796875,0.965087890625,0.426177978515625,-0.61309814453125,0.201873779296875,5.614141096249672,6.015264525665785,4.032138855112891,4.049716996876714,0.0,0.0,0.0,0.0,0.0,0.0,0.0,0.0,0.0,0.0,0.0,0.0,68.01113,1,1.0,1.0,1.0,1.0,87.70
2026-01-13 05:43:46.894,1.105167,0.89876693,1.1638644,0.9159182,0.85071814,0.7449202,0.3162507,0.7306055,1.1490773,0.6545288,0.2568239,0.94829327,0.7573944,0.22198401,0.08947423,0.5385431,-0.046257526,-0.24173903,-0.4197106,-0.21822079,483.95288,814.70123,776.3779,766.9078,775.31586,774.51935,746.46277,1138.6345,-0.33758544921875,-0.0460205078125,0.9609375,0.127105712890625,0.07476806640625,-0.1495361328125,5.6414543547195,6.031866103998284,4.069278783110412,4.07281882554896,0.0,0.0,0.0,0.0,0.0,0.0,0.0,0.0,0.0,0.0,0.0,0.0,67.22917,1,2.0,1.0,1.0,2.0,87.68
2026-01-13 05:43:47.896,1.105167,0.89876693,1.1638644,0.9159182,0.85071814,0.7449202,0.3162507,0.7306055,1.1490773,0.6545288,0.2568239,0.94829327,0.7573944,0.22198401,0.08947423,0.5385431,-0.046257526,-0.24173903,-0.4197106,-0.21822079,507.9381,754.16284,728.4075,466.60562,733.45233,751.5962,755.8445,1258.7377,-0.3363037109375,-0.03753662109375,0.96087646484375,0.2093505859375,-0.478515625,0.800018310546875,5.655828147724293,6.039098776911523,4.0853920797272485,4.079776839997139,0.0,0.0,0.0,0.0,0.0,0.0,0.0,0.0,0.0,0.0,0.0,0.0,67.712135,1,2.0,1.0,1.0,2.0,87.68
2026-01-13 05:43:48.897,1.105167,1.0245686,1.2161354,0.9159182,0.85071814,0.6626987,0.7720429,0.7306055,1.1490773,0.48915902,0.3893384,0.94829327,0.7573944,0.17633176,0.16907358,0.5385431,-0.046257526,-0.25903052,-0.56645525,-0.21822079,726.6374,790.893,814.43567,839.66003,478.28848,462.71133,511.30136,534.57855,-0.33953857421875,-0.05328369140625,0.9599609375,0.545806884765625,0.01495361328125,-0.59814453125,5.66791312018692,6.041723291133205,4.100711918556136,4.085483632548936,0.0,0.0,0.0,0.0,0.0,0.0,0.0,0.0,0.0,0.0,0.0,0.0,69.53072,1,2.0,1.0,1.0,2.0,87.68
2026-01-13 05:43:49.905,1.105167,1.2107834,1.2888278,0.9159182,0.85071814,0.6980381,0.76872337,0.7306055,1.1490773,0.104773775,0.3404638,0.94829327,0.7573944,0.17634502,0.119447865,0.5385431,-0.046257526,-0.19834578,-0.5882755,-0.21822079,762.8365,676.3657,729.7351,1239.0009,744.8697,747.9674,745.84326,1220.3259,-0.32916259765625,-0.0408935546875,0.96453857421875,0.58319091796875,-1.472930908203125,0.545806884765625,5.578679636649739,5.9929256371742605,3.9948158214719975,4.022312185585199,0.0,0.0,0.0,0.0,0.0,0.0,0.0,0.0,0.0,0.0,0.0,0.0,69.74206,1,2.0,1.0,1.0,2.0,87.68
2026-01-13 05:43:50.912,1.105167,1.2048169,1.2888278,0.9159182,0.85071814,1.0381587,0.76872337,0.7306055,1.1490773,0.8040935,0.3404638,0.94829327,0.7573944,0.5843061,0.119447865,0.5385431,-0.046257526,0.043662038,-0.5882755,-0.21822079,616.53546,742.92255,735.134,614.05725,570.86615,569.45,591.57666,612.6412,-0.337890625,-0.0467529296875,0.96136474609375,0.1495361328125,0.201873779296875,-0.007476806640625,5.570928164413609,5.982641203538135,3.9792518417852802,4.008335121474382,0.0,0.0,0.0,0.0,0.0,0.0,0.0,0.0,0.0,0.0,0.0,0.0,68.53159,1,2.0,1.0,1.0,2.0,87.68
2026-01-13 05:43:51.923,1.105167,1.3402101,1.3986641,0.9159182,0.85071814,1.1144837,0.70457345,0.7306055,1.1490773,0.9153448,0.57334256,0.94829327,0.7573944,0.72364175,0.31482843,0.5385431,-0.046257526,0.029779708,-0.1976552,-0.21822079,649.3713,748.8525,718.05225,588.92145,749.295,746.28577,742.83405,1175.4532,-0.33984375,-0.043212890625,0.9571533203125,0.321502685546875,-0.46356201171875,0.1495361328125,5.574285101208783,5.980291347781513,3.9777564790310658,4.003238681067162,0.0,0.0,0.0,0.0,0.0,0.0,0.0,0.0,0.0,0.0,0.0,0.0,68.14921,1,2.0,1.0,1.0,2.0,87.68
2026-01-13 05:43:52.935,1.105167,1.2111892,0.86763936,0.9159182,0.85071814,0.79468966,0.4764942,0.7306055,1.1490773,0.8798487,0.31218797,0.94829327,0.7573944,0.45127073,0.07053967,0.5385431,-0.046257526,-0.15127473,-0.31160945,-0.21822079,677.60486,716.2821,725.7523,662.2932,745.2237,744.5157,762.2169,1270.4205,-0.34027099609375,-0.03973388671875,0.95941162109375,0.351409912109375,-0.61309814453125,0.67291259765625,5.576451851322032,5.979253749135732,3.9795570178575685,4.0023231528502965,0.0,0.0,0.0,0.0,0.0,0.0,0.0,0.0,0.0,0.0,0.0,0.0,68.53925,1,2.0,1.0,1.0,2.0,87.67
2026-01-13 05:43:53.938,1.0009717,0.68534786,0.9264708,0.9159182,0.35060713,0.03710963,0.65702534,0.7306055,0.9115456,0.3648369,0.31195608,0.94829327,0.44937146,0.0989728,0.0034229045,0.5385431,-0.15058309,-0.18058625,-0.12057578,-0.21822079,708.8476,724.1592,723.9822,704.8648,738.2317,739.7363,764.07556,1269.093,-0.33380126953125,-0.04364013671875,0.9635009765625,0.276641845703125,-0.55328369140625,-0.37384033203125,5.593267052905134,5.993017189995947,4.000949860524998,4.018680590324965,0.0,0.0,0.0,0.0,0.0,0.0,0.0,0.0,0.0,0.0,0.0,0.0,67.9788,1,1.0,1.0,1.0,1.0,87.67
2026-01-13 05:43:54.953,0.96345294,0.69656634,0.93589985,0.9159182,0.3127871,-0.034357347,-0.062589034,0.7306055,0.89052284,0.4764025,-0.07128776,0.94829327,0.42304766,0.10343529,-0.033256993,0.5385431,-0.0817653,-0.15492664,-0.24203944,-0.21822079,722.12354,741.8605,735.134,778.50214,741.8605,736.10754,733.8949,1191.2074,-0.33526611328125,-0.0521240234375,0.96588134765625,0.059814453125,-0.2093505859375,0.418701171875,5.6254020933171205,6.018621462460959,4.040561714708057,4.0467567889755145,0.0,0.0,0.0,0.0,0.0,0.0,0.0,0.0,0.0,0.0,0.0,0.0,66.73682,1,1.0,1.0,1.0,1.0,87.67
2026-01-13 05:43:55.962,0.81550926,1.0774504,0.96359617,1.1736578,0.41181076,-0.08718433,0.02066972,0.5999288,0.48166442,0.43249223,0.24476932,0.7606434,0.37384176,0.16495508,0.21953851,0.80110335,-0.11147283,-0.23180264,-0.2836186,0.39133185,904.8007,765.6687,752.3927,739.47076,782.21936,789.12286,753.1893,1217.7593,-0.34112548828125,-0.04486083984375,0.95904541015625,-0.171966552734375,0.276641845703125,-0.306549072265625,5.618657702119544,6.027715709415158,4.037082707483966,4.05542378942851,0.0,0.0,0.0,0.0,0.0,0.0,0.0,0.0,0.0,0.0,0.0,0.0,66.90326,1,1.0,1.0,1.0,1.0,87.67
2026-01-13 05:43:56.968,0.77116543,1.2105328,0.79529107,1.1736578,0.45168117,-0.116504736,0.05760156,0.5999288,0.46805018,0.42715928,0.24129775,0.7606434,0.3385079,0.20754491,0.3758365,0.80110335,-0.2097823,-0.22859502,-0.35349756,0.39133185,808.15173,774.4308,741.8605,769.8285,774.51935,774.87335,770.1825,1356.4487,-0.33648681640625,-0.03509521484375,0.962158203125,0.01495361328125,-1.443023681640625,0.785064697265625,5.566472593758196,5.992467873065827,3.9725379681949313,4.012485516057507,0.0,0.0,0.0,0.0,0.0,0.0,0.0,0.0,0.0,0.0,0.0,0.0,68.60293,1,1.0,1.0,1.0,1.0,87.67
2026-01-13 05:43:57.977,0.77116543,1.2105328,0.79529107,1.2250315,0.45168117,-0.116504736,0.05760156,0.66429806,0.46805018,0.42715928,0.24129775,0.7606434,0.3385079,0.20754491,0.3758365,0.77419555,-0.2097823,-0.22859502,-0.35349756,0.40613115,900.72943,563.4316,650.6989,637.2459,762.571,763.456,751.2421,1353.7051,-0.3365478515625,-0.04449462890625,0.9569091796875,0.426177978515625,-0.201873779296875,0.097198486328125,5.57517011181842,5.988592136947762,3.973941778127459,4.0057106072527,0.0,0.0,0.0,0.0,0.0,0.0,0.0,0.0,0.0,0.0,0.0,0.0,70.00812,1,1.0,1.0,1.0,1.0,87.64
2026-01-13 05:43:58.632,,,,,,,,,,,,,,,,,,,,,,,,,,,,,,,,,,,,,,,,,,,,,,,,,,,,,,,,,,/muse/elements/blink
2026-01-13 05:43:58.900,,,,,,,,,,,,,,,,,,,,,,,,,,,,,,,,,,,,,,,,,,,,,,,,,,,,,,,,,,/muse/elements/blink
2026-01-13 05:43:58.982,0.77116543,1.2105328,0.79529107,1.2250315,0.45168117,-0.116504736,0.05760156,0.66429806,0.46805018,0.42715928,0.24129775,0.7606434,0.3385079,0.20754491,0.3758365,0.77419555,-0.2097823,-0.22859502,-0.35349756,0.40613115,529.6222,670.2588,703.62573,770.89056,645.3,630.2539,647.6012,746.19727,-0.3277587890625,-0.0423583984375,0.97021484375,0.3887939453125,-0.55328369140625,0.7476806640625,5.594243616336456,6.000768662232077,3.9950599623298286,4.0197792241852035,0.0,0.0,0.0,0.0,0.0,0.0,0.0,0.0,0.0,0.0,0.0,0.0,69.771065,1,2.0,1.0,1.0,2.0,87.64
2026-01-13 05:43:59.998,0.77116543,1.2105328,0.79529107,1.2250315,0.45168117,-0.116504736,0.05760156,0.66429806,0.46805018,0.42715928,0.24129775,0.7606434,0.3385079,0.20754491,0.3758365,0.77419555,-0.2097823,-0.22859502,-0.35349756,0.40613115,565.6443,791.247,750.6226,542.10156,766.9963,760.97784,761.42035,1232.2743,-0.33154296875,-0.044677734375,0.962646484375,-0.097198486328125,0.22430419921875,-0.179443359375,5.636693607991798,6.029577283456119,4.04794697565744,4.053958944281525,0.0,0.0,0.0,0.0,0.0,0.0,0.0,0.0,0.0,0.0,0.0,0.0,68.783134,1,2.0,1.0,1.0,2.0,87.64
2026-01-13 05:44:01.011,0.77116543,1.2361081,1.5891875,1.2250315,0.45168117,0.48464093,1.1514004,0.66429806,0.46805018,0.49653137,0.758458,0.7606434,0.3385079,0.4063401,0.29496005,0.77419555,-0.2097823,-0.25914857,-0.41651762,0.40613115,682.9152,777.97107,730.8857,636.44934,739.38226,742.74554,731.85925,1120.4022,-0.330078125,-0.04058837890625,0.9649658203125,-0.157012939453125,0.0299072265625,-0.37384033203125,5.661748563526691,6.041173974203085,4.081302720358582,4.072971413585104,0.0,0.0,0.0,0.0,0.0,0.0,0.0,0.0,0.0,0.0,0.0,0.0,69.0722,1,2.0,1.0,1.0,2.0,87.64
2026-01-13 05:44:02.025,0.77116543,1.034785,1.399655,1.2250315,0.45168117,0.68142915,0.90146816,0.66429806,0.46805018,0.46073171,0.77858627,0.7606434,0.3385079,0.43015835,0.216265,0.77419555,-0.2097823,-0.10422697,-0.4612462,0.40613115,707.697,752.0387,745.84326,780.8918,750.5341,758.9422,767.4388,1288.9183,-0.3333740234375,-0.0469970703125,0.95587158203125,0.2392578125,-0.46356201171875,0.01495361328125,5.58936079917984,6.007024771713993,3.999912261879217,4.02817156617314,0.0,0.0,0.0,0.0,0.0,0.0,0.0,0.0,0.0,0.0,0.0,0.0,70.28132,1,2.0,1.0,1.0,2.0,87.64
2026-01-13 05:44:03.037,0.77116543,0.78377044,0.9443144,1.2250315,0.45168117,0.709437,0.34874862,0.66429806,0.46805018,0.35505146,0.26824862,0.7606434,0.3385079,0.55844814,0.15640484,0.77419555,-0.2097823,-0.04443143,-0.4458558,0.40613115,1263.6941,618.04004,609.54346,1074.2904,483.0678,470.3229,505.1944,565.9983,-0.3338623046875,-0.0469970703125,0.962646484375,-0.0,-0.0,-0.246734619140625,5.571935245452162,5.989690770808001,3.976688362778056,4.008579262332213,0.0,0.0,0.0,0.0,0.0,0.0,0.0,0.0,0.0,0.0,0.0,0.0,70.27556,1,2.0,1.0,1.0,2.0,87.64
2026-01-13 05:44:04.054,0.77116543,0.78377044,0.9443144,1.2250315,0.45168117,0.709437,0.34874862,0.66429806,0.46805018,0.35505146,0.26824862,0.7606434,0.3385079,0.55844814,0.15640484,0.77419555,-0.2097823,-0.04443143,-0.4458558,0.40613115,893.5604,581.84094,686.10144,1106.6837,770.71356,754.33984,763.456,1226.6099,-0.33551025390625,-0.04949951171875,0.96063232421875,-0.1495361328125,-0.306549072265625,0.201873779296875,5.581426221300336,5.98837851369716,3.9804115108599767,4.006870276327397,0.0,0.0,0.0,0.0,0.0,0.0,0.0,0.0,0.0,0.0,0.0,0.0,69.85827,1,2.0,1.0,1.0,2.0,87.61
2026-01-13 05:44:05.067,0.77116543,0.78377044,0.9443144,1.2250315,0.45168117,0.709437,0.34874862,0.66429806,0.46805018,0.35505146,0.26824862,0.7606434,0.3385079,0.55844814,0.15640484,0.77419555,-0.2097823,-0.04443143,-0.4458558,0.40613115,434.5663,790.6275,721.94653,249.23396,754.33984,740.9754,754.5169,1263.8711,-0.33343505859375,-0.044677734375,0.96209716796875,-0.052337646484375,-0.3887939453125,-0.2392578125,5.5809379395846745,5.982854826788737,3.9774818205660063,3.9984779343394607,0.0,0.0,0.0,0.0,0.0,0.0,0.0,0.0,0.0,0.0,0.0,0.0,70.48565,1,2.0,1.0,1.0,2.0,87.61
2026-01-13 05:44:06.083,0.77116543,1.3489509,0.9443144,1.2250315,0.45168117,0.7913683,0.34874862,0.66429806,0.46805018,0.5179423,0.26824862,0.7606434,0.3385079,0.49920496,0.15640484,0.77419555,-0.2097823,-0.020845512,-0.4458558,0.40613115,488.20117,756.99506,697.7843,504.8404,735.488,723.0971,726.4603,1292.7241,-0.3363037109375,-0.05328369140625,0.95916748046875,0.0897216796875,-0.22430419921875,-0.605621337890625,5.591069785184655,5.987035738979091,3.991733543141883,4.003452304317765,0.0,0.0,0.0,0.0,0.0,0.0,0.0,0.0,0.0,0.0,0.0,0.0,71.40834,1,2.0,1.0,1.0,2.0,87.61
2026-01-13 05:44:07.098,0.77116543,1.4674048,0.9443144,1.2250315,0.45168117,0.6626998,0.34874862,0.66429806,0.46805018,0.7821289,0.26824862,0.7606434,0.3385079,0.47761065,0.15640484,0.77419555,-0.2097823,-0.078662165,-0.4458558,0.40613115,577.76965,754.6054,710.4407,572.7248,733.1868,737.3466,755.8445,1263.3401,-0.33624267578125,-0.04779052734375,0.9586181640625,0.6280517578125,-0.411224365234375,0.022430419921875,5.629125241399041,6.016332641918795,4.033573182652647,4.033756288296021,0.0,0.0,0.0,0.0,0.0,0.0,0.0,0.0,0.0,0.0,0.0,0.0,70.87383,1,2.0,1.0,1.0,2.0,87.61
2026-01-13 05:44:08.116,0.77116543,1.3034502,1.0512753,1.2250315,0.45168117,0.34095994,0.6296089,0.66429806,0.46805018,0.68770856,0.6540991,0.7606434,0.3385079,0.30003744,0.278298,0.77419555,-0.2097823,-0.31097224,-0.33290473,0.40613115,654.7702,746.63983,718.40625,581.92944,734.1604,735.3995,731.3282,1107.1263,-0.33477783203125,-0.0438232421875,0.96142578125,0.13458251953125,0.28411865234375,-0.25421142578125,5.558538015878693,5.976690270128508,3.946323343585342,3.979190806570822,0.0,0.0,0.0,0.0,0.0,0.0,0.0,0.0,0.0,0.0,0.0,0.0,69.47306,1,2.0,1.0,1.0,2.0,87.61
2026-01-13 05:44:09.127,0.77116543,0.8600807,0.91203207,1.2250315,0.45168117,0.33442062,0.49283403,0.66429806,0.46805018,0.3599353,0.1677692,0.7606434,0.3385079,0.3429224,0.25028723,0.77419555,-0.2097823,-0.3009725,-0.24416143,0.40613115,709.90967,746.46277,724.69025,727.69946,571.7512,564.7592,578.30066,1008.08765,-0.33587646484375,-0.05242919921875,0.98907470703125,0.94207763671875,-0.91217041015625,0.800018310546875,5.574712347709987,5.988470066518847,3.9607276541973633,3.990421286031042,0.0,0.0,0.0,0.0,0.0,0.0,0.0,0.0,0.0,0.0,0.0,0.0,69.24017,1,2.0,1.0,1.0,2.0,87.61
2026-01-13 05:44:10.140,0.70451784,0.8336319,0.7158014,1.2250315,0.5300514,0.19725087,0.198315,0.66429806,0.4005293,0.39337435,0.16734278,0.7606434,0.47101954,0.19876887,0.083994895,0.77419555,0.26811883,-0.18481696,-0.1787333,0.40613115,732.7443,789.12286,810.0989,877.5408,788.1493,791.6011,769.2089,1203.8638,-0.323486328125,-0.0401611328125,0.97637939453125,-0.2691650390625,1.831817626953125,-0.276641845703125,5.5882621653196,5.997076031757385,3.977359750137091,4.000003814700904,0.0,0.0,0.0,0.0,0.0,0.0,0.0,0.0,0.0,0.0,0.0,0.0,69.65962,1,1.0,1.0,1.0,1.0,87.58
2026-01-13 05:44:11.148,0.74816155,0.97405213,0.8796305,1.2250315,0.5615583,0.026275469,0.10895355,0.66429806,0.36120674,0.35733676,0.10251521,0.7606434,0.5226828,0.26308012,0.0036603748,0.77419555,0.24393499,-0.07316243,-0.10426576,0.40613115,1349.9878,717.52124,703.89124,1122.6149,766.1112,775.5814,739.02826,1199.2615,-0.3397216796875,-0.04486083984375,0.95684814453125,2.10845947265625,-1.973876953125,1.7047119140625,5.600652313854517,6.005834585032067,3.992771141787664,4.010105142693655,0.0,0.0,0.0,0.0,0.0,0.0,0.0,0.0,0.0,0.0,0.0,0.0,69.731445,1,1.0,1.0,1.0,1.0,87.58
2026-01-13 05:44:12.151,0.74816155,1.0230445,0.8796305,1.2250315,0.5615583,0.028220704,0.10895355,0.66429806,0.36120674,0.3371526,0.10251521,0.7606434,0.5226828,0.2604236,0.0036603748,0.77419555,0.24393499,-0.08675282,-0.10426576,0.40613115,655.6553,690.34973,705.3073,593.5238,766.7308,770.0055,802.2218,1445.9287,-0.3336181640625,-0.03448486328125,0.9583740234375,0.336456298828125,-1.368255615234375,0.366363525390625,5.641606942755645,6.036535297904298,4.045993848794793,4.0463905776887685,0.0,0.0,0.0,0.0,0.0,0.0,0.0,0.0,0.0,0.0,0.0,0.0,70.73195,1,1.0,1.0,1.0,1.0,87.58
2026-01-13 05:44:13.154,0.74816155,1.0230445,0.8796305,1.2250315,0.5615583,0.028220704,0.10895355,0.66429806,0.36120674,0.3371526,0.10251521,0.7606434,0.5226828,0.2604236,0.0036603748,0.77419555,0.24393499,-0.08675282,-0.10426576,0.40613115,526.1704,720.0879,704.24524,497.7599,752.56976,757.7031,753.4548,1187.2246,-0.33294677734375,-0.03997802734375,0.96990966796875,0.216827392578125,0.16448974609375,0.276641845703125,5.574529242066614,5.999151229048947,3.9610328302696516,3.9960975609756098,0.0,0.0,0.0,0.0,0.0,0.0,0.0,0.0,0.0,0.0,0.0,0.0,71.53909,1,2.0,1.0,1.0,2.0,87.58
2026-01-13 05:44:14.162,0.74816155,0.8382032,0.8796305,1.2250315,0.5615583,0.3806565,0.10895355,0.66429806,0.36120674,0.84258115,0.10251521,0.7606434,0.5226828,0.3024333,0.0036603748,0.77419555,0.24393499,-0.27742636,-0.10426576,0.40613115,642.91034,752.56976,716.7247,618.7481,733.36383,726.4603,718.22925,1089.8676,-0.33648681640625,-0.03900146484375,0.964111328125,0.216827392578125,-0.680389404296875,0.127105712890625,5.597295377059343,6.011480342369406,3.9881935007033356,4.013034832987626,0.0,0.0,0.0,0.0,0.0,0.0,0.0,0.0,0.0,0.0,0.0,0.0,72.390015,1,2.0,1.0,1.0,2.0,87.58
2026-01-13 05:44:15.164,0.74816155,1.1756293,1.0237925,1.2250315,0.5615583,0.60853946,0.20631401,0.66429806,0.36120674,0.81350666,0.5612481,0.7606434,0.5226828,0.3575928,0.40346643,0.77419555,0.24393499,-0.30253047,-0.11437154,0.40613115,720.0879,748.6755,695.4831,662.9128,614.7653,596.35596,604.8526,1066.0593,-0.33160400390625,-0.03253173828125,0.962890625,0.052337646484375,-0.171966552734375,-0.35888671875,5.642827647044799,6.043829006031996,4.042484323963475,4.0508156307369525,0.0,0.0,0.0,0.0,0.0,0.0,0.0,0.0,0.0,0.0,0.0,0.0,73.33469,1,2.0,1.0,1.0,2.0,87.57
2026-01-13 05:44:16.173,0.74816155,1.1814439,0.7705668,1.2250315,0.5615583,0.81092876,0.62446743,0.66429806,0.36120674,0.8174343,0.6271075,0.7606434,0.5226828,0.43914294,0.2588788,0.77419555,0.24393499,-0.31820416,-0.060109112,0.40613115,648.0437,738.4972,708.9361,646.8046,523.60376,510.85883,530.94977,741.4179,-0.33709716796875,-0.041259765625,0.96160888671875,-0.0,0.097198486328125,0.022430419921875,5.700658512743485,6.078558043058436,4.115787616527192,4.097080323295901,0.0,0.0,0.0,0.0,0.0,0.0,0.0,0.0,0.0,0.0,0.0,0.0,73.18133,1,2.0,1.0,1.0,2.0,87.57
2026-01-13 05:44:17.177,1.4038211,0.808293,0.91687506,0.9913803,0.8342814,0.5181242,0.49937958,0.8733834,1.0216404,0.7978301,0.5866535,1.2366333,0.6815394,0.39387813,0.24223267,0.57924235,-0.020962568,-0.43637732,-0.45236403,-0.08256158,670.61285,734.69147,712.1223,653.97363,485.90002,460.14465,505.37143,587.6824,-0.3319091796875,-0.0372314453125,0.96453857421875,0.0897216796875,-1.18133544921875,-0.650482177734375,5.579076365543714,6.011175166297117,3.971897098443125,4.013889325990034,0.0,0.0,0.0,0.0,0.0,0.0,0.0,0.0,0.0,0.0,0.0,0.0,73.34661,1,1.0,1.0,1.0,1.0,87.57
2026-01-13 05:44:18.191,1.344197,0.9107185,1.0108668,1.2182285,0.6865295,0.71058947,0.6619692,1.0702878,0.79264635,0.8244686,0.6879415,1.2191975,0.49456057,0.28432855,0.30061972,0.6582401,-0.053212877,-0.33413082,-0.2547198,-0.042226486,684.1543,744.2501,713.4499,688.4911,764.6951,762.6595,768.9434,1354.1476,-0.33465576171875,-0.0389404296875,0.96148681640625,0.34393310546875,0.171966552734375,-0.0,5.57117230527144,5.99481772882245,3.958591421691343,3.994571680614167,0.0,0.0,0.0,0.0,0.0,0.0,0.0,0.0,0.0,0.0,0.0,0.0,74.147125,1,1.0,1.0,1.0,1.0,87.57
2026-01-13 05:44:19.199,1.3062876,1.0237746,0.7760064,1.4536414,0.60930985,0.37313646,0.41892442,1.2071711,0.72980607,0.45234784,0.3829474,0.9311108,0.5927955,0.35896674,0.36682895,0.7916926,-0.028733926,-0.364477,-0.17340127,0.044398446,1126.0667,760.97784,645.123,682.6497,762.3939,777.1745,763.89856,1359.989,-0.33111572265625,-0.037353515625,0.964599609375,0.538330078125,-1.03179931640625,-0.112152099609375,5.57837446057745,5.99133872159836,3.963962520563622,3.9932899411105547,0.0,0.0,0.0,0.0,0.0,0.0,0.0,0.0,0.0,0.0,0.0,0.0,73.73434,1,1.0,1.0,1.0,1.0,87.57
2026-01-13 05:44:20.205,1.3062876,1.2168102,0.7471111,1.4536414,0.60930985,0.07763425,0.077910334,1.2071711,0.72980607,0.2353239,0.121068306,0.9311108,0.5927955,0.21899067,0.28423247,0.7916926,-0.028733926,-0.56107974,-0.3138498,0.044398446,723.6282,675.5692,656.0093,646.7161,752.4812,751.9502,743.5421,1168.1072,-0.3306884765625,-0.042236328125,0.96392822265625,0.28411865234375,-0.441131591796875,0.351409912109375,5.619054431013518,6.015996948239277,4.017032639534606,4.026401544953866,0.0,0.0,0.0,0.0,0.0,0.0,0.0,0.0,0.0,0.0,0.0,0.0,72.52864,1,1.0,1.0,1.0,1.0,87.55
2026-01-13 05:44:21.218,1.3062876,1.2168102,0.7471111,1.4536414,0.60930985,0.07763425,0.077910334,1.2071711,0.72980607,0.2353239,0.121068306,0.9311108,0.5927955,0.21899067,0.28423247,0.7916926,-0.028733926,-0.56107974,-0.3138498,0.044398446,500.9461,738.85126,712.7419,664.5059,760.0043,760.62384,784.3435,1419.4653,-0.3349609375,-0.03839111328125,0.9617919921875,0.157012939453125,-0.530853271484375,0.067291259765625,5.607183081801493,6.009252557041699,4.002414705671983,4.017246262785209,0.0,0.0,0.0,0.0,0.0,0.0,0.0,0.0,0.0,0.0,0.0,0.0,72.35748,1,2.0,1.0,1.0,2.0,87.55
2026-01-13 05:44:22.233,1.3062876,0.45103365,1.0079849,1.4536414,0.60930985,0.18478283,0.33799642,1.2071711,0.72980607,0.63762337,0.15173571,0.9311108,0.5927955,0.19274983,-0.05924469,0.7916926,-0.028733926,-0.07070622,-0.2616753,0.044398446,580.69037,733.1868,733.6294,701.3245,769.917,777.70557,794.1677,1448.8494,-0.3260498046875,-0.03546142578125,0.968505859375,0.007476806640625,-1.00189208984375,-0.949554443359375,5.547032877953413,5.973089192475502,3.927188803852848,3.9673499749660253,0.0,0.0,0.0,0.0,0.0,0.0,0.0,0.0,0.0,0.0,0.0,0.0,73.26988,1,2.0,1.0,1.0,2.0,87.55
2026-01-13 05:44:23.246,1.3062876,0.55474746,0.9320642,1.4536414,0.60930985,0.19482574,0.31691843,1.2071711,0.72980607,0.6752162,0.4283128,0.9311108,0.5927955,0.34323826,0.11370015,0.7916926,-0.028733926,-0.1685454,-0.31837443,0.044398446,654.23914,752.4812,740.8869,736.46155,790.8045,770.71356,811.16095,1429.732,-0.32623291015625,-0.04248046875,0.96893310546875,0.01495361328125,-0.478515625,-0.964508056640625,5.55032877953413,5.976812340557423,3.925235676990201,3.966373411534702,0.0,0.0,0.0,0.0,0.0,0.0,0.0,0.0,0.0,0.0,0.0,0.0,72.12938,1,2.0,1.0,1.0,2.0,87.55
2026-01-13 05:44:24.261,1.3062876,0.6753167,0.60265607,1.3346639,0.60930985,0.052921135,0.049831852,0.43787268,0.72980607,0.47357592,0.22884284,0.76958036,0.5927955,0.34014332,0.17215881,0.624803,-0.028733926,-0.1394424,-0.35782006,0.07995314,665.745,736.19604,727.69946,743.27655,543.9602,522.6302,554.40393,838.77496,-0.33392333984375,-0.04010009765625,0.96514892578125,0.201873779296875,0.112152099609375,-0.13458251953125,5.570317812269032,5.993871682998355,3.9453467801540185,3.982761366616599,0.0,0.0,0.0,0.0,0.0,0.0,0.0,0.0,0.0,0.0,0.0,0.0,68.568146,1,1.0,1.0,1.0,1.0,87.55
2026-01-13 05:44:25.269,1.3062876,0.41991815,0.61665386,1.3346639,0.60930985,0.1700932,0.107592806,0.43787268,0.72980607,0.53796136,0.15647592,0.76958036,0.5927955,0.1993383,-0.013014092,0.624803,-0.028733926,-0.25043133,-0.48624575,0.07995314,715.30853,730.6202,732.8328,694.5981,814.52423,823.9944,834.4381,1450.0,-0.33392333984375,-0.04156494140625,0.959228515625,0.10467529296875,-0.2093505859375,-0.321502685546875,5.596776577736452,6.014867796771809,3.9761085282407076,4.008090980616551,0.0,0.0,0.0,0.0,0.0,0.0,0.0,0.0,0.0,0.0,0.0,0.0,65.43308,1,1.0,1.0,1.0,1.0,87.55
2026-01-13 05:44:26.271,0.9036065,0.7211159,0.28319034,0.77418774,0.67689466,0.035079308,0.18424653,0.6806382,0.7725312,0.63219005,0.15413097,1.0012028,0.34896716,0.1228017,-0.0424057,0.47786614,-0.040074207,-0.1948135,-0.41412222,0.052173603,812.7541,791.5126,769.1204,807.7977,769.563,775.31586,783.45844,1450.0,-0.33343505859375,-0.04266357421875,0.96063232421875,0.25421142578125,-0.67291259765625,-0.0,5.602391817466562,6.023321173974203,3.9859657153756287,4.01828386143099,0.0,0.0,0.0,0.0,0.0,0.0,0.0,0.0,0.0,0.0,0.0,0.0,64.523796,1,1.0,1.0,1.0,1.0,87.51
2026-01-13 05:44:27.271,0.71545047,1.0712795,0.3186484,0.814704,0.34900287,-0.25625384,0.34329283,0.76991045,0.45563772,0.23181441,0.1161925,0.9907645,0.2820058,0.123191245,-0.09506804,0.40586564,0.033129886,-0.17400698,-0.42680898,0.045738436,1096.24,710.61774,693.00494,747.34784,761.7744,773.1917,769.2089,1427.7849,-0.33355712890625,-0.039794921875,0.96673583984375,0.097198486328125,-0.530853271484375,0.351409912109375,5.610631571418353,6.029943494742866,3.9939918460768187,4.02310564337315,0.0,0.0,0.0,0.0,0.0,0.0,0.0,0.0,0.0,0.0,0.0,0.0,65.629,1,1.0,1.0,1.0,1.0,87.51
2026-01-13 05:44:28.284,0.71545047,1.0712795,0.45854926,0.814704,0.34900287,-0.25625384,0.37785828,0.76991045,0.45563772,0.23181441,-0.044853605,0.9907645,0.2820058,0.123191245,-0.08488069,0.40586564,0.033129886,-0.17400698,-0.4270865,0.045738436,659.72656,709.4671,680.1715,647.0701,700.705,691.50037,734.86847,1107.7458,-0.333740234375,-0.04034423828125,0.9620361328125,-0.231781005859375,-0.710296630859375,-0.814971923828125,5.633275635982166,6.0417843263476625,4.0280494957442246,4.043247264144195,0.0,0.0,0.0,0.0,0.0,0.0,0.0,0.0,0.0,0.0,0.0,0.0,66.47238,1,1.0,1.0,1.0,1.0,87.51
2026-01-13 05:44:29.294,0.71545047,1.0712795,0.45854926,0.814704,0.34900287,-0.25625384,0.37785828,0.76991045,0.45563772,0.23181441,-0.044853605,0.9907645,0.2820058,0.123191245,-0.08488069,0.40586564,0.033129886,-0.17400698,-0.4270865,0.045738436,559.4488,735.134,712.3878,774.0768,648.3092,638.92755,638.2195,1258.1182,-0.337158203125,-0.04229736328125,0.9647216796875,-0.31402587890625,0.3289794921875,0.710296630859375,5.670781775266433,6.065588059986172,4.077243878597144,4.07681663209594,0.0,0.0,0.0,0.0,0.0,0.0,0.0,0.0,0.0,0.0,0.0,0.0,66.92503,1,2.0,1.0,1.0,2.0,87.51
2026-01-13 05:44:30.296,0.71545047,0.7039923,0.89303696,0.814704,0.34900287,0.32352665,0.2095486,0.76991045,0.45563772,0.39089197,0.21146306,0.9907645,0.2820058,0.16043033,0.11003463,0.40586564,0.033129886,-0.26399633,-0.42425862,0.045738436,610.517,721.41547,733.1868,751.0651,765.7572,760.97784,760.1813,1428.0504,-0.3345947265625,-0.038330078125,0.96441650390625,0.112152099609375,-1.024322509765625,-0.171966552734375,5.595342250196696,6.024297737405527,3.989597310635863,4.024997735021339,0.0,0.0,0.0,0.0,0.0,0.0,0.0,0.0,0.0,0.0,0.0,0.0,68.05243,1,2.0,1.0,1.0,2.0,87.51
2026-01-13 05:44:31.306,0.71545047,0.49044767,0.7225988,1.357566,0.34900287,0.14098749,0.12528296,0.43278915,0.45563772,0.48697415,0.1873565,0.68426865,0.2820058,0.1331617,0.030362353,0.44851694,0.033129886,-0.36872864,-0.41594544,-0.036048986,694.1555,737.0811,742.65704,751.2421,766.4652,774.2538,773.1032,1450.0,-0.3353271484375,-0.04437255859375,0.95794677734375,0.186920166015625,0.112152099609375,0.04486083984375,5.559056815201583,5.98785971437427,3.9417457025010134,3.985019669551534,0.0,0.0,0.0,0.0,0.0,0.0,0.0,0.0,0.0,0.0,0.0,0.0,69.69651,1,2.0,1.0,1.0,2.0,87.50
2026-01-13 05:44:32.310,0.71545047,1.0391606,0.68998814,0.729266,0.34900287,0.47562447,0.10070023,0.38624957,0.45563772,0.61974823,0.16368742,0.7902719,0.2820058,0.21607926,-0.009587049,0.472799,0.033129886,-0.5255728,-0.4644301,0.039145205,702.3866,737.3466,724.2477,729.8236,503.24725,496.25528,526.4359,669.0197,-0.33538818359375,-0.04547119140625,0.958984375,0.171966552734375,-0.381317138671875,-0.1495361328125,5.5640006675726585,5.984624848008011,3.9434546885058293,3.9813270390768425,0.0,0.0,0.0,0.0,0.0,0.0,0.0,0.0,0.0,0.0,0.0,0.0,69.45314,1,1.0,1.0,1.0,1.0,87.50
2026-01-13 05:44:33.319,0.85960007,0.99874103,0.59179634,0.7586363,-0.010876279,0.30496648,0.09403348,0.33889326,0.58766884,0.4677032,0.19013166,0.7157871,0.47455174,0.20291302,-0.03297694,0.46333283,-0.14119872,-0.37233728,-0.46648824,0.07903125,689.46466,714.33496,720.3534,722.9201,758.8537,782.04236,775.22736,1450.0,-0.33355712890625,-0.04791259765625,0.95697021484375,0.007476806640625,-0.381317138671875,0.4486083984375,5.5779472140762465,5.994085306248957,3.9610328302696516,3.9929237298238087,0.0,0.0,0.0,0.0,0.0,0.0,0.0,0.0,0.0,0.0,0.0,0.0,67.93174,1,1.0,1.0,1.0,1.0,87.50
2026-01-13 05:44:34.323,0.47745743,0.53887075,0.57231885,1.1356165,0.38217926,0.21416417,0.2515103,0.5205373,0.7684107,0.2938605,0.23429301,0.71019167,0.47124138,0.1019296,0.02149277,0.5052236,-0.20548268,-0.36055383,-0.45769045,0.0068694134,702.65216,719.7339,725.48676,728.23047,793.19415,794.9643,801.6908,1450.0,-0.33538818359375,-0.04656982421875,0.960693359375,0.246734619140625,-0.889739990234375,-0.07476806640625,5.576970650644923,5.992956154781489,3.958835562549174,3.9924049305009177,0.0,0.0,0.0,0.0,0.0,0.0,0.0,0.0,0.0,0.0,0.0,0.0,66.77285,1,1.0,1.0,1.0,1.0,87.50
2026-01-13 05:44:35.335,0.84988624,0.63580555,0.8874168,1.168814,0.52150047,0.22455923,0.40741476,0.57231885,0.8128524,0.4234188,0.57622707,0.7868397,0.4469055,0.13077234,0.031415258,0.4734038,-0.12932397,-0.33931634,-0.63191575,0.010222977,697.7843,717.1672,731.94775,717.60974,757.8801,760.2698,765.49164,1449.292,-0.33673095703125,-0.04302978515625,0.9608154296875,-0.097198486328125,-0.299072265625,-0.88226318359375,5.589025105500322,6.0014095319838825,3.9765662923491405,4.003269198674391,0.0,0.0,0.0,0.0,0.0,0.0,0.0,0.0,0.0,0.0,0.0,0.0,67.11348,1,1.0,1.0,1.0,1.0,87.50
2026-01-13 05:44:36.340,0.8583732,0.22337787,1.0487863,1.178441,0.3346592,0.24097155,0.335644,0.57239455,0.717041,0.43768388,0.54615265,0.72980493,0.45011574,0.014476004,-0.1172171,0.39753228,0.0015061328,-0.2298145,-0.43035203,0.009157935,717.2557,720.88446,730.5317,735.0455,783.10443,775.8469,779.03314,1417.5182,-0.33837890625,-0.0411376953125,0.96148681640625,0.04486083984375,-0.478515625,-0.55328369140625,5.618505114083399,6.020360966073004,4.014896407028586,4.0282326013875975,0.0,0.0,0.0,0.0,0.0,0.0,0.0,0.0,0.0,0.0,0.0,0.0,67.26959,1,1.0,1.0,1.0,1.0,87.50
2026-01-13 05:44:37.351,0.35451546,0.3109299,0.9124206,0.78437793,0.3371204,0.043330967,0.19225894,0.43412125,0.8652935,0.27119026,0.51044697,0.8908496,0.27299744,0.0036225996,-0.09649899,0.40311134,-0.08358656,-0.3792085,-0.42617962,-0.10968856,714.866,722.03503,731.2397,757.17206,756.11,748.3214,750.26855,1329.7198,-0.3397216796875,-0.04046630859375,0.96014404296875,0.650482177734375,0.0299072265625,0.16448974609375,5.670415563979686,6.057317788427151,4.0795632167465365,4.074070047445343,0.0,0.0,0.0,0.0,0.0,0.0,0.0,0.0,0.0,0.0,0.0,0.0,66.49046,1,1.0,1.0,1.0,1.0,87.48
2026-01-13 05:44:38.363,0.61704755,0.5448675,0.87625724,1.0974535,0.34615582,0.10424042,0.11091417,0.46651983,0.91753197,0.0020673755,0.5011711,0.89786184,0.21588989,0.036602292,-0.08501494,0.26145387,-0.10656584,-0.33151212,-0.39983952,-0.13122962,853.90955,805.3195,803.1069,808.32874,757.9686,765.22614,755.4019,1356.9797,-0.33502197265625,-0.0469970703125,0.96661376953125,0.037384033203125,-0.22430419921875,-0.37384033203125,5.568578308656987,6.001073838304365,3.9613074887347115,4.004947667071979,0.0,0.0,0.0,0.0,0.0,0.0,0.0,0.0,0.0,0.0,0.0,0.0,66.50212,1,1.0,1.0,1.0,1.0,87.48
2026-01-13 05:44:39.371,0.89256287,0.7233764,0.52418363,1.2296542,0.08390399,0.05447218,-0.23626211,0.39420968,0.8862208,-0.18790236,-0.1784812,0.62435085,0.33581245,-0.028135452,-0.19426195,0.32223916,-0.15180627,-0.52952373,-0.49630347,-0.11864711,950.47,674.94965,712.7419,753.3663,795.4068,790.8045,741.3294,1308.6553,-0.33740234375,-0.04412841796875,0.9630126953125,0.142059326171875,-0.059814453125,0.351409912109375,5.558476980664235,5.987279879836922,3.9466590372648596,3.988285053525022,0.0,0.0,0.0,0.0,0.0,0.0,0.0,0.0,0.0,0.0,0.0,0.0,67.89507,1,1.0,1.0,1.0,1.0,87.48
2026-01-13 05:44:40.376,0.89256287,0.7233764,0.52418363,1.2296542,0.08390399,0.05447218,-0.23626211,0.39420968,0.8862208,-0.18790236,-0.1784812,0.62435085,0.33581245,-0.028135452,-0.19426195,0.32223916,-0.15180627,-0.52952373,-0.49630347,-0.11864711,629.5459,705.6614,665.6565,632.20105,762.925,769.2089,732.9213,1258.6492,-0.33990478515625,-0.041015625,0.9627685546875,0.306549072265625,-0.73272705078125,-0.3289794921875,5.570836611591923,5.988897313020051,3.9598426435877263,3.994144434112963,0.0,0.0,0.0,0.0,0.0,0.0,0.0,0.0,0.0,0.0,0.0,0.0,68.80588,1,1.0,1.0,1.0,1.0,87.48
2026-01-13 05:44:41.391,0.89256287,0.7233764,0.52418363,1.2296542,0.08390399,0.05447218,-0.23626211,0.39420968,0.8862208,-0.18790236,-0.1784812,0.62435085,0.33581245,-0.028135452,-0.19426195,0.32223916,-0.15180627,-0.52952373,-0.49630347,-0.11864711,649.54834,725.39825,693.8015,613.1722,766.8193,773.1032,734.51447,1245.5503,-0.33843994140625,-0.0458984375,0.9620361328125,0.22430419921875,-0.261688232421875,0.10467529296875,5.586186968028038,5.997930524759793,3.978427866390101,4.00622940657559,0.0,0.0,0.0,0.0,0.0,0.0,0.0,0.0,0.0,0.0,0.0,0.0,68.64907,1,2.0,1.0,1.0,2.0,87.48
2026-01-13 05:44:42.401,0.89256287,0.84564155,0.8812448,1.2296542,0.08390399,0.4737678,0.07038691,0.39420968,0.8862208,0.17341807,0.3509241,0.62435085,0.33581245,0.16219328,0.34028557,0.32223916,-0.15180627,-0.321046,-0.3221917,-0.11864711,672.02893,737.3466,700.705,709.0246,770.271,753.1893,732.21326,1419.2883,-0.340087890625,-0.04632568359375,0.9593505859375,-0.022430419921875,-0.411224365234375,0.336456298828125,5.6243339770641105,6.021764776005531,4.024906182199652,4.034671816512887,0.0,0.0,0.0,0.0,0.0,0.0,0.0,0.0,0.0,0.0,0.0,0.0,68.104164,1,2.0,1.0,1.0,2.0,87.46
2026-01-13 05:44:43.402,0.7610861,0.45589754,0.7330803,0.8810214,0.9111389,0.23618703,0.1022602,0.42393467,0.9429552,0.31341308,0.38218775,0.99046314,0.58917236,0.111866795,0.25373322,0.33912724,-0.020052461,-0.17745586,-0.2461092,0.2504328,676.2772,745.1352,731.4167,728.67303,722.6546,732.39026,698.5809,1338.0394,-0.33880615234375,-0.039306640625,0.9644775390625,-0.142059326171875,-0.2392578125,-0.127105712890625,5.643468516796605,6.0306148821019,4.051029253987554,4.049137162339365,0.0,0.0,0.0,0.0,0.0,0.0,0.0,0.0,0.0,0.0,0.0,0.0,68.500275,1,1.0,1.0,1.0,1.0,87.46
2026-01-13 05:44:44.410,0.55674696,0.42674333,0.6260816,0.94574004,0.46086445,0.095181905,0.037066787,0.15500122,1.1080579,0.35834002,0.36095774,1.0358245,0.5827491,0.06094201,0.07320522,0.43381956,-0.043679696,-0.22027549,-0.34634736,0.14764963,690.7038,733.7179,724.51324,721.681,677.87036,665.6565,644.946,1224.3087,-0.340576171875,-0.0506591796875,0.95635986328125,0.680389404296875,-0.366363525390625,0.082244873046875,5.666631380683309,6.044378322962115,4.080661850606776,4.068759983787521,0.0,0.0,0.0,0.0,0.0,0.0,0.0,0.0,0.0,0.0,0.0,0.0,69.330696,1,1.0,1.0,1.0,1.0,87.46
2026-01-13 05:44:45.414,0.8172821,0.60037744,0.4584411,1.1313314,0.34733838,0.17609143,0.072026245,0.4602771,1.0703524,0.40900245,0.26810372,1.2629668,0.4405542,0.14189506,0.16834703,0.49586535,-0.048449833,-0.28574607,-0.39557293,0.123801775,698.4923,725.30975,730.7087,738.4972,619.8987,614.23425,569.45,1025.3464,-0.333740234375,-0.042724609375,0.96331787109375,0.725250244140625,-1.203765869140625,0.10467529296875,5.566564146579882,5.9895992179863145,3.9643287318503684,3.998905180840665,0.0,0.0,0.0,0.0,0.0,0.0,0.0,0.0,0.0,0.0,0.0,0.0,68.652306,1,1.0,1.0,1.0,1.0,87.46
2026-01-13 05:44:46.429,0.543404,0.21308385,0.4089591,1.2543756,0.27001077,-0.4259092,-0.26976234,0.7234439,1.2232232,0.10297168,5.639009E-4,1.2953267,0.38833934,-0.08440747,-0.06770762,0.4054828,-0.03544719,-0.45543215,-0.69898325,0.18336365,706.4579,725.5753,731.59375,721.85803,744.2501,742.92255,720.0879,1259.2688,-0.3380126953125,-0.046875,0.9593505859375,-0.40374755859375,-0.1495361328125,-0.2691650390625,5.569158143194335,5.988592136947762,3.962284052166035,3.997806546980426,0.0,0.0,0.0,0.0,0.0,0.0,0.0,0.0,0.0,0.0,0.0,0.0,67.43734,1,1.0,1.0,1.0,1.0,87.46
2026-01-13 05:44:47.451,0.70322794,0.056280833,0.3499998,1.3985474,0.46032032,0.02977687,-0.1657361,0.7805051,1.2285492,-0.12482849,-0.094899036,1.2924614,0.3926548,-0.07505372,-0.23838091,0.2948287,-0.14476834,-0.5137465,-0.5879836,0.26697454,719.9109,723.0086,733.36383,738.1432,501.0346,478.11145,501.0346,654.5047,-0.34228515625,-0.045166015625,0.9599609375,0.127105712890625,-0.186920166015625,0.231781005859375,5.571874210237704,5.989782323629688,3.965702024175667,3.999332427341869,0.0,0.0,0.0,0.0,0.0,0.0,0.0,0.0,0.0,0.0,0.0,0.0,67.164734,1,1.0,1.0,1.0,1.0,87.46
2026-01-13 05:44:48.464,0.7170182,-0.15290144,0.35399044,1.3985474,0.21512733,-0.2321299,-0.4435734,0.7805051,0.8980746,0.009588323,0.049116667,1.2924614,0.2911643,-0.020074552,-0.16154821,0.2948287,-0.30517346,-0.5658104,-0.59789413,0.26697454,713.53845,710.61774,728.23047,709.0246,771.4216,777.97107,773.6343,1362.1132,-0.34405517578125,-0.05364990234375,0.96142578125,0.127105712890625,-0.16448974609375,-0.306549072265625,5.594457239587059,5.998632429726057,3.9949073742936845,4.014469160527383,0.0,0.0,0.0,0.0,0.0,0.0,0.0,0.0,0.0,0.0,0.0,0.0,68.68094,1,1.0,1.0,1.0,1.0,87.46
2026-01-13 05:44:49.474,0.68236554,0.92564034,0.86985886,1.3985474,0.32031143,0.18584785,0.05114997,0.7805051,0.66798395,0.57201266,0.12649868,1.2924614,0.18662441,0.08048254,0.009862607,0.2948287,-0.13604076,-0.5819906,-0.6919189,0.26697454,777.70557,761.5974,729.38104,699.99695,492.80353,475.27927,519.0899,508.73465,-0.3375244140625,-0.04156494140625,0.95684814453125,0.01495361328125,-0.515899658203125,0.10467529296875,5.605718236654507,6.003301623632072,4.011112223732208,4.021274586939418,0.0,0.0,0.0,0.0,0.0,0.0,0.0,0.0,0.0,0.0,0.0,0.0,69.82103,1,1.0,1.0,1.0,1.0,87.46
2026-01-13 05:44:50.482,0.52140933,1.0082027,1.3669153,1.3985474,0.5624075,0.4385653,0.70313823,0.7805051,0.6262559,0.55585504,0.63109916,1.2924614,0.22454369,0.098965526,0.01099959,0.2948287,-0.12992759,-0.4632786,-0.3007132,0.26697454,789.91943,755.579,700.882,698.1383,755.3134,752.83527,752.3042,1245.2848,-0.3431396484375,-0.04632568359375,0.9598388671875,0.082244873046875,-0.0299072265625,-0.37384033203125,5.626927973678564,6.0141048565910875,4.03937152802613,4.0363502849104735,0.0,0.0,0.0,0.0,0.0,0.0,0.0,0.0,0.0,0.0,0.0,0.0,69.879005,1,1.0,1.0,1.0,1.0,87.46
2026-01-13 05:44:51.487,0.52140933,0.80641264,1.1649067,1.2513491,0.5624075,0.42561492,0.5303401,0.86013365,0.6262559,0.49000603,0.61571056,1.2665653,0.22454369,0.08702498,0.018629896,0.5573134,-0.12992759,-0.44322085,-0.4317279,-0.16214427,710.61774,725.30975,708.8476,702.0326,745.2237,752.74677,731.4167,1191.2074,-0.3358154296875,-0.04766845703125,0.9615478515625,0.142059326171875,-1.652374267578125,0.538330078125,5.5675407100112055,5.9890499010561955,3.9696387955081898,4.001590730276805,0.0,0.0,0.0,0.0,0.0,0.0,0.0,0.0,0.0,0.0,0.0,0.0,68.758934,1,1.0,1.0,1.0,1.0,87.46
2026-01-13 05:44:52.493,0.8696413,0.8404432,0.5176701,0.9863859,0.26503852,0.17267883,-0.034670718,0.48241943,0.58222944,0.547745,0.26209143,1.2405165,0.2595338,0.036946353,-0.14928523,0.46554324,-0.35906622,-0.18340562,-0.48718807,-0.2330887,710.97174,729.29254,732.12476,729.02704,753.2778,747.9674,756.287,1271.6597,-0.33282470703125,-0.041015625,0.9669189453125,0.157012939453125,-1.143951416015625,-0.01495361328125,5.544469398946189,5.975255942588752,3.939639987602222,3.98245619054431,0.0,0.0,0.0,0.0,0.0,0.0,0.0,0.0,0.0,0.0,0.0,0.0,67.35492,1,1.0,1.0,1.0,1.0,87.46
2026-01-13 05:44:53.499,1.0327668,0.5437283,0.9254534,1.0210595,0.47921318,-0.190413,0.10089053,0.5265407,0.8736141,-0.1530236,0.13018428,0.87838477,0.19515796,0.022982555,-0.17889151,0.44722193,-0.21354915,-0.33321497,-0.52790016,-0.07125789,716.8132,682.6497,765.31464,750.7111,742.126,738.0547,749.91455,1268.9159,-0.33331298828125,-0.051513671875,0.96563720703125,0.007476806640625,0.216827392578125,-0.49346923828125,5.5435538707293235,5.9754695658393535,3.937351167060058,3.983097060296116,0.0,0.0,0.0,0.0,0.0,0.0,0.0,0.0,0.0,0.0,0.0,0.0,66.64274,1,1.0,1.0,1.0,1.0,87.46
2026-01-13 05:44:54.504,,,,,,,,,,,,,,,,,,,,,,,,,,,,,,,,,,,,,,,,,,,,,,,,,,,,,,,,,,/muse/elements/blink
2026-01-13 05:44:54.506,1.2626154,0.80134076,1.0433708,1.2457793,0.6682202,-0.25956565,0.15895914,0.68300223,0.6593998,-0.5272277,0.071943395,0.8363852,0.18799716,0.042754807,-0.12150028,0.53660464,-0.055854898,-0.44308773,-0.70239663,-0.036789443,1448.7609,708.051,586.9743,615.2078,772.04114,773.5458,741.595,1163.5934,-0.3311767578125,-0.04132080078125,0.966064453125,0.11962890625,-0.97198486328125,-0.657958984375,5.553624681114846,5.984136566292349,3.9522132417805116,3.995456691223804,0.0,0.0,0.0,0.0,0.0,0.0,0.0,0.0,0.0,0.0,0.0,0.0,65.022095,1,1.0,1.0,1.0,1.0,87.45
2026-01-13 05:44:55.101,,,,,,,,,,,,,,,,,,,,,,,,,,,,,,,,,,,,,,,,,,,,,,,,,,,,,,,,,,/muse/elements/blink
2026-01-13 05:44:55.516,1.2626154,0.80134076,0.9638366,1.2457793,0.6682202,-0.25956565,0.0031181427,0.68300223,0.6593998,-0.5272277,-0.1387316,0.8363852,0.18799716,0.042754807,-0.11218927,0.53660464,-0.055854898,-0.44308773,-0.74823314,-0.036789443,714.24646,668.8427,664.5059,719.6454,746.28577,756.11,759.56177,1226.1674,-0.33709716796875,-0.04412841796875,0.966552734375,0.2093505859375,-0.306549072265625,-0.0,5.56769329804735,5.9948787640369074,3.966312376320244,4.006107336146675,0.0,0.0,0.0,0.0,0.0,0.0,0.0,0.0,0.0,0.0,0.0,0.0,62.92053,1,1.0,1.0,1.0,1.0,87.45
2026-01-13 05:44:56.528,1.2626154,0.80134076,0.9638366,1.2457793,0.6682202,-0.25956565,0.0031181427,0.68300223,0.6593998,-0.5272277,-0.1387316,0.8363852,0.18799716,0.042754807,-0.11218927,0.53660464,-0.055854898,-0.44308773,-0.74823314,-0.036789443,377.4797,742.65704,739.7363,581.1329,759.7388,754.6939,755.6675,1258.2952,-0.340576171875,-0.04669189453125,0.9576416015625,-0.201873779296875,-0.2392578125,0.04486083984375,5.5733695729919175,5.997259137400758,3.970859499797344,4.007633216508118,0.0,0.0,0.0,0.0,0.0,0.0,0.0,0.0,0.0,0.0,0.0,0.0,61.91502,1,2.0,1.0,1.0,2.0,87.45
2026-01-13 05:44:57.542,1.2626154,0.80134076,0.9638366,1.2457793,0.6682202,-0.25956565,0.0031181427,0.68300223,0.6593998,-0.5272277,-0.1387316,0.8363852,0.18799716,0.042754807,-0.11218927,0.53660464,-0.055854898,-0.44308773,-0.74823314,-0.036789443,473.1551,726.8144,718.7603,672.6485,753.98584,752.74677,763.98706,1273.6953,-0.3404541015625,-0.0474853515625,0.9609375,0.1495361328125,-0.418701171875,-0.007476806640625,5.573705266671435,5.992376320244141,3.9673499749660253,4.0032081634599335,0.0,0.0,0.0,0.0,0.0,0.0,0.0,0.0,0.0,0.0,0.0,0.0,62.857807,1,2.0,1.0,1.0,2.0,87.45
2026-01-13 05:44:58.559,1.2626154,0.62230897,0.74301326,1.2457793,0.6682202,0.25239885,0.3375227,0.68300223,0.6593998,0.38846362,0.012401377,0.8363852,0.18799716,0.20670909,-0.16892365,0.53660464,-0.055854898,-0.19947904,-0.4381498,-0.036789443,591.93066,735.84204,737.9662,710.52924,754.42834,751.1536,754.25134,1222.8926,-0.33856201171875,-0.0433349609375,0.96435546875,0.28411865234375,-0.530853271484375,0.426177978515625,5.580205517011182,5.987951267195957,3.974948859166011,4.0014381422406595,0.0,0.0,0.0,0.0,0.0,0.0,0.0,0.0,0.0,0.0,0.0,0.0,65.15334,1,2.0,1.0,1.0,2.0,87.45
2026-01-13 05:44:59.572,1.2626154,0.5936334,0.80488485,1.2457793,0.6682202,0.21778508,-0.054534193,0.68300223,0.6593998,0.4347999,0.25295568,0.8363852,0.18799716,0.04444552,-0.10443544,0.53660464,-0.055854898,-0.46152335,-0.5997429,-0.036789443,669.0197,732.12476,724.95575,692.91644,729.29254,727.96497,706.1924,1100.6653,-0.3328857421875,-0.04730224609375,0.9580078125,-0.022430419921875,-0.710296630859375,-0.590667724609375,5.590856161934053,5.990545263810409,3.9855384688744246,4.004886631857521,0.0,0.0,0.0,0.0,0.0,0.0,0.0,0.0,0.0,0.0,0.0,0.0,66.259834,1,2.0,1.0,1.0,2.0,87.44
2026-01-13 05:45:00.579,0.92814356,0.3954425,0.52073485,1.2457793,0.43884438,-0.04892602,-0.26815188,0.68300223,0.485375,0.3552866,0.14504665,0.8363852,0.48923284,-0.0292786,-0.19506861,0.53660464,-0.2647187,-0.37214932,-0.5551872,-0.036789443,677.0738,732.03625,724.51324,706.1039,736.01904,740.9754,731.50525,1126.9517,-0.3369140625,-0.04345703125,0.96514892578125,-0.157012939453125,-0.037384033203125,0.590667724609375,5.610936747490642,5.999425887514007,4.011692058269556,4.018344896645448,0.0,0.0,0.0,0.0,0.0,0.0,0.0,0.0,0.0,0.0,0.0,0.0,65.776695,1,1.0,1.0,1.0,1.0,87.44
2026-01-13 05:45:01.583,0.89043945,0.4009877,0.23182574,1.0635082,0.4814312,-0.013540917,-0.19096316,0.6397035,0.4847043,0.044693973,0.07845957,0.82624155,0.40805092,-0.086289406,-0.14111073,0.3854679,-0.25839704,-0.5991971,-0.63236207,-0.10142252,698.9349,727.69946,736.8156,760.71234,531.3923,514.22205,532.36584,693.8015,-0.33782958984375,-0.04498291015625,0.96026611328125,-0.052337646484375,-0.897216796875,0.5682373046875,5.533391507522113,5.955327945068307,3.9243201487733352,3.963504756455189,0.0,0.0,0.0,0.0,0.0,0.0,0.0,0.0,0.0,0.0,0.0,0.0,66.22048,1,1.0,1.0,1.0,1.0,87.44
2026-01-13 05:45:02.584,0.62404543,0.78975654,0.47752142,1.0179805,0.15680143,0.0485673,-0.026574928,0.18171996,0.547533,0.0046563065,0.14114667,0.64122504,0.17042571,-0.06620846,-0.103167154,0.23294845,-0.30372062,-0.62894714,-0.83126414,-0.11552309,738.76276,734.4259,737.0811,805.7621,753.54333,750.44556,740.5329,1161.3807,-0.33319091796875,-0.03460693359375,0.95867919921875,0.179443359375,-1.547698974609375,0.052337646484375,5.526402975466705,5.946630427008082,3.9135169158143195,3.952304794602198,0.0,0.0,0.0,0.0,0.0,0.0,0.0,0.0,0.0,0.0,0.0,0.0,67.849686,1,1.0,1.0,1.0,1.0,87.44
2026-01-13 05:45:03.598,0.66888434,1.0057441,0.83267945,1.1261318,-0.082154736,0.12121952,0.09498446,-0.06689765,0.413183,-0.08804293,0.25519842,0.2278788,0.09967384,-0.14704728,-0.20054193,0.29578027,-0.31439433,-0.65364283,-0.71620786,-0.120999806,971.62305,677.0738,722.6546,811.42645,487.58163,473.77466,509.26572,505.81396,-0.3330078125,-0.04254150390625,0.96368408203125,0.426177978515625,-0.635528564453125,-0.5682373046875,5.525548482464297,5.945653863576759,3.9054907851131295,3.9447669456166703,0.0,0.0,0.0,0.0,0.0,0.0,0.0,0.0,0.0,0.0,0.0,0.0,68.081856,1,1.0,1.0,1.0,1.0,87.44
2026-01-13 05:45:04.610,0.7005247,1.149915,1.0412993,1.1152625,-0.09706104,0.14775598,0.32893682,-0.05922407,0.35651755,-0.35167074,0.22283678,0.16729659,0.11032893,-0.2383001,-0.24173626,0.32391605,-0.3157829,-0.7539334,-0.5977526,-0.13900366,713.71545,678.04736,689.8187,777.97107,768.5009,758.7652,742.2145,1346.89,-0.33740234375,-0.04095458984375,0.958251953125,-0.4486083984375,0.31402587890625,-0.201873779296875,5.525273823999237,5.944402641680376,3.89987554538302,3.940036716496197,0.0,0.0,0.0,0.0,0.0,0.0,0.0,0.0,0.0,0.0,0.0,0.0,66.43795,1,1.0,1.0,1.0,1.0,87.44
2026-01-13 05:45:05.621,0.7005247,1.149915,1.0412993,1.1152625,-0.09706104,0.14775598,0.32893682,-0.05922407,0.35651755,-0.35167074,0.22283678,0.16729659,0.11032893,-0.2383001,-0.24173626,0.32391605,-0.3157829,-0.7539334,-0.5977526,-0.13900366,610.16296,714.866,706.63495,558.0327,733.7179,748.4984,761.6859,1266.7917,-0.34014892578125,-0.042236328125,0.95806884765625,0.112152099609375,-0.814971923828125,-0.246734619140625,5.544194740481129,5.957982976897218,3.9165076413227475,3.951297713563646,0.0,0.0,0.0,0.0,0.0,0.0,0.0,0.0,0.0,0.0,0.0,0.0,65.31436,1,2.0,1.0,1.0,2.0,87.43
2026-01-13 05:45:06.629,0.7005247,1.0887922,0.81708837,1.1152625,-0.09706104,0.3449266,0.1150831,-0.05922407,0.35651755,0.4091314,0.5387276,0.16729659,0.11032893,0.12114195,0.26366025,0.32391605,-0.3157829,-0.23005909,-0.40754318,-0.13900366,649.72534,728.23047,702.1211,704.7763,741.8605,743.36505,759.2077,1265.3757,-0.339599609375,-0.04754638671875,0.95843505859375,0.201873779296875,-0.91217041015625,-0.052337646484375,5.5592399208449566,5.9712276184345425,3.9328955964046446,3.964115108599766,0.0,0.0,0.0,0.0,0.0,0.0,0.0,0.0,0.0,0.0,0.0,0.0,65.781006,1,2.0,1.0,1.0,2.0,87.43
2026-01-13 05:45:07.639,0.7577082,0.7849905,0.8152585,1.1152625,0.27697882,0.09795517,0.042453855,-0.05922407,0.76791745,0.43894154,0.52492106,0.16729659,0.3783979,0.09512218,0.042938113,0.32391605,-0.04561665,-0.290139,-0.3629236,-0.13900366,658.1334,726.2833,711.14874,686.898,757.17206,751.5962,772.6607,1276.793,-0.3372802734375,-0.04742431640625,0.963623046875,0.411224365234375,-0.814971923828125,0.052337646484375,5.575414252676251,5.9853572705815035,3.9511451255275016,3.9795570178575685,0.0,0.0,0.0,0.0,0.0,0.0,0.0,0.0,0.0,0.0,0.0,0.0,65.81199,1,1.0,1.0,1.0,1.0,87.43
2026-01-13 05:45:08.642,0.6020398,0.31690997,0.630094,0.65726894,0.07049993,-0.112874866,0.08563886,0.38067812,0.8003768,0.11579748,-0.24411508,0.8143543,0.32694134,0.068222456,0.08614822,0.51272464,-0.16524099,-0.39052072,-0.38693568,0.03486189,692.2969,721.14996,720.2649,675.12665,750.44556,749.118,743.36505,1208.112,-0.3380126953125,-0.044677734375,0.95941162109375,-0.25421142578125,-0.231781005859375,-0.246734619140625,5.6134086736761795,6.014287962234461,3.9998817442719883,4.012607586486422,0.0,0.0,0.0,0.0,0.0,0.0,0.0,0.0,0.0,0.0,0.0,0.0,65.070946,1,1.0,1.0,1.0,1.0,87.43
2026-01-13 05:45:09.654,0.4247668,0.038374074,0.3626928,0.9223455,-0.036616016,0.06541128,-0.23966958,0.47222275,0.8103974,0.09919006,0.030710872,0.52537346,0.25086027,0.07711058,0.08557537,0.4668993,-0.24201418,-0.39154622,-0.58075094,0.05795387,699.1119,720.88446,723.8937,687.8716,765.8457,768.8549,747.17084,1184.2153,-0.3404541015625,-0.04901123046875,0.96240234375,0.157012939453125,-0.2691650390625,0.299072265625,5.6204582409460455,6.017461793386262,4.00918961447679,4.019748706577975,0.0,0.0,0.0,0.0,0.0,0.0,0.0,0.0,0.0,0.0,0.0,0.0,65.28422,1,1.0,1.0,1.0,1.0,87.43
2026-01-13 05:45:10.663,0.65219015,0.38593113,0.4867423,1.1199627,0.041366894,-0.16713491,-0.37695903,0.46266136,0.84147936,0.28138006,0.078707464,0.5210519,0.15603329,-0.09670383,-0.06800014,0.405929,-0.28548622,-0.41083792,-0.6099794,0.15192159,716.2821,779.9182,717.3442,725.39825,779.03314,785.0516,772.8377,1386.1869,-0.3365478515625,-0.0440673828125,0.95977783203125,-0.142059326171875,-0.3289794921875,-0.336456298828125,5.653356221538755,6.035650287294661,4.053409627351406,4.045047802970698,0.0,0.0,0.0,0.0,0.0,0.0,0.0,0.0,0.0,0.0,0.0,0.0,66.5672,1,1.0,1.0,1.0,1.0,87.43
2026-01-13 05:45:11.666,0.84068847,0.72086036,1.1665859,1.4178038,-0.019050634,-0.18525338,0.5949057,0.8662114,0.7306393,0.27660647,0.35560527,0.67118496,0.17407714,-0.0867891,0.1119527,0.563686,-0.22252482,-0.307057,-0.3899979,-0.031678416,903.2961,735.84204,739.11676,724.95575,755.579,747.8789,731.85925,1336.1808,-0.33477783203125,-0.04522705078125,0.96337890625,0.112152099609375,-1.413116455078125,-0.291595458984375,5.613500226497866,6.018072145530839,4.008884438404501,4.024570488520134,0.0,0.0,0.0,0.0,0.0,0.0,0.0,0.0,0.0,0.0,0.0,0.0,66.76225,1,1.0,1.0,1.0,1.0,87.41
2026-01-13 05:45:12.669,0.8804627,0.7939175,1.4556454,1.3918931,-0.19595759,-0.20404442,0.8828552,0.9346918,0.62669843,0.27660647,0.78092384,0.9866538,0.2202302,-0.05318075,0.31698033,0.5133875,-0.23140845,-0.2758025,-0.18527813,-0.0029239852,740.6214,743.8961,722.5661,755.933,719.8224,704.06824,686.10144,1232.6283,-0.336181640625,-0.046142578125,0.962646484375,0.059814453125,0.171966552734375,-0.157012939453125,5.540807286078726,5.970647783897194,3.9206580359058725,3.963321650811816,0.0,0.0,0.0,0.0,0.0,0.0,0.0,0.0,0.0,0.0,0.0,0.0,66.33472,1,1.0,1.0,1.0,1.0,87.41
2026-01-13 05:45:13.673,0.8804627,0.6941797,1.1952796,1.268691,-0.19595759,0.470165,0.46637514,0.79370695,0.62669843,0.6088597,0.6763521,0.9466739,0.2202302,0.2276884,0.20258975,0.64290416,-0.23140845,-0.3200558,-0.24247918,0.18418077,685.03937,737.4351,723.7167,750.7996,623.97,620.78375,606.62274,1047.0305,-0.33984375,-0.0435791015625,0.96435546875,-0.276641845703125,-0.022430419921875,-0.201873779296875,5.53589395131488,5.959569892473119,3.909580144481797,3.9508704670624417,0.0,0.0,0.0,0.0,0.0,0.0,0.0,0.0,0.0,0.0,0.0,0.0,67.00441,1,1.0,1.0,1.0,1.0,87.41
2026-01-13 05:45:14.676,0.63559854,0.8227716,0.6013061,0.76749164,0.5534569,0.42847034,0.11814249,0.4006362,0.8010057,0.5001545,0.24405125,0.94407177,0.32668725,0.17869335,-0.14773442,0.3174921,-0.06203788,-0.29997134,-0.5423495,-0.22172555,694.6866,715.22003,730.0006,724.69025,764.6066,770.62506,749.3835,1123.677,-0.33837890625,-0.047119140625,0.9586181640625,0.171966552734375,-0.46356201171875,-0.157012939453125,5.528234031900436,5.948888729943018,3.89987554538302,3.9393348115299336,0.0,0.0,0.0,0.0,0.0,0.0,0.0,0.0,0.0,0.0,0.0,0.0,68.32438,1,1.0,1.0,1.0,1.0,87.41
2026-01-13 05:45:15.688,0.93433857,0.49686784,0.3681808,0.70586395,0.60699916,0.08436635,-0.20782094,0.32084927,1.0112307,0.4464391,0.26610065,0.9866058,0.22161229,0.02618263,-0.17431517,0.4137022,-0.070642516,-0.48478085,-0.51368093,-0.0053368015,689.11066,720.1764,718.9373,715.7511,501.38864,489.52878,522.2761,602.0204,-0.33746337890625,-0.04132080078125,0.96014404296875,0.04486083984375,-0.478515625,0.0299072265625,5.560094413847365,5.964971508952626,3.9346045824094604,3.95920177383592,0.0,0.0,0.0,0.0,0.0,0.0,0.0,0.0,0.0,0.0,0.0,0.0,68.75581,1,1.0,1.0,1.0,1.0,87.41
2026-01-13 05:45:16.694,0.5968883,0.5229012,0.66114986,1.1651119,0.07010387,0.16235945,0.07523095,0.82614815,1.1665006,0.45827448,0.3319798,1.2606024,0.15908565,-7.7171595E-4,-0.111462995,0.5251666,-0.30198097,-0.5222089,-0.57369655,0.036974754,708.4935,705.6614,733.36383,715.13153,479.52756,477.04938,507.40707,501.83118,-0.3382568359375,-0.04541015625,0.96221923828125,-0.059814453125,-0.515899658203125,-0.396270751953125,5.57971723529552,5.982641203538135,3.959934196409413,3.978855112891305,0.0,0.0,0.0,0.0,0.0,0.0,0.0,0.0,0.0,0.0,0.0,0.0,67.47659,1,1.0,1.0,1.0,1.0,87.38
2026-01-13 05:45:17.704,0.36845818,0.11011807,0.40069994,1.1901875,0.094549134,-0.1974122,-0.25986528,0.94390786,1.1420783,0.19654019,0.13199612,1.2641481,0.2152939,-0.21968226,-0.19854723,0.49246916,-0.42145798,-0.62024945,-0.67556316,-0.13170542,725.6638,717.52124,726.5489,731.1512,530.4187,508.46915,560.42236,548.297,-0.337890625,-0.04046630859375,0.9580078125,0.11962890625,-0.418701171875,0.3289794921875,5.607427222659323,6.003973010991107,3.994541163006938,4.001834871134635,0.0,0.0,0.0,0.0,0.0,0.0,0.0,0.0,0.0,0.0,0.0,0.0,65.75136,1,1.0,1.0,1.0,1.0,87.38
2026-01-13 05:45:18.714,0.37396163,-0.13201825,0.4228608,0.68109596,0.11085228,-0.33577383,-0.3341381,0.48062152,0.99136806,0.25441065,0.13199612,0.750266,0.22790425,-0.17491935,-0.14793254,0.30514,-0.33214235,-0.61158526,-0.6880228,-0.09891693,727.0799,723.0971,726.1063,737.0811,760.71234,748.4984,757.9686,1226.5214,-0.33563232421875,-0.03717041015625,0.96142578125,0.059814453125,-0.59814453125,0.186920166015625,5.641027108218296,6.026983286841666,4.036289249696016,4.029056576782777,0.0,0.0,0.0,0.0,0.0,0.0,0.0,0.0,0.0,0.0,0.0,0.0,65.87864,1,1.0,1.0,1.0,1.0,87.38
2026-01-13 05:45:19.718,0.30556145,-0.1596138,0.4890398,0.94282705,0.27579004,-0.21608976,-0.3280967,0.14942,0.9799018,0.23000191,0.025664361,0.9001066,0.27793935,-0.114898086,-0.27217492,0.31951377,-0.33932334,-0.58192086,-0.62664276,0.029307093,716.9017,705.9269,733.45233,748.8525,750.7111,754.16284,747.43634,1192.8889,-0.337890625,-0.04052734375,0.955810546875,0.04486083984375,-1.12152099609375,0.13458251953125,5.665685334859214,6.043706935603081,4.063785613809217,4.048160598908042,0.0,0.0,0.0,0.0,0.0,0.0,0.0,0.0,0.0,0.0,0.0,0.0,66.350746,1,1.0,1.0,1.0,1.0,87.38
2026-01-13 05:45:20.727,0.60704523,0.7361075,0.5981967,1.1440204,0.03798643,-0.2950271,-0.37308276,0.19728054,1.0237883,0.13330042,0.15740351,0.98882973,0.20025262,-0.105408415,-0.39122224,0.48493105,-0.25313118,-0.52605253,-0.4760932,-0.009197021,744.6042,734.77997,729.38104,756.99506,761.33185,750.26855,738.2317,1184.5693,-0.33447265625,-0.040771484375,0.96087646484375,0.40374755859375,-1.1962890625,0.4486083984375,5.545659585628115,5.978734949812841,3.9231909973058676,3.9675635982166275,0.0,0.0,0.0,0.0,0.0,0.0,0.0,0.0,0.0,0.0,0.0,0.0,65.90538,1,1.0,1.0,1.0,1.0,87.38
2026-01-13 05:45:21.740,0.87348706,1.0262283,0.7753662,1.2725581,-0.15358277,0.17607729,0.15255071,0.23476444,1.0085975,0.39650545,0.6181826,0.9840017,0.23047157,-0.12119569,-0.19042756,0.5760491,-0.117119126,-0.4260331,-0.50099045,0.03445771,753.1893,742.0375,708.9361,693.18195,522.0991,510.6818,529.9762,708.051,-0.34185791015625,-0.04461669921875,0.96136474609375,-0.022430419921875,-0.0,0.112152099609375,5.535954986529338,5.972845051617671,3.912540352382996,3.9598426435877263,0.0,0.0,0.0,0.0,0.0,0.0,0.0,0.0,0.0,0.0,0.0,0.0,65.897644,1,1.0,1.0,1.0,1.0,87.38
2026-01-13 05:45:22.757,1.4170424,0.8931148,0.60895604,1.2725581,1.1072412,0.40945354,0.19916241,0.23476444,1.1147529,0.4638581,0.6189232,0.9840017,0.24966557,0.25558406,0.19741751,0.5760491,-0.036718845,-0.19960435,-0.3866411,0.03445771,685.92444,712.8304,703.80273,722.12354,773.2802,780.6263,780.7148,1337.0659,-0.34075927734375,-0.04119873046875,0.95538330078125,0.246734619140625,-0.321502685546875,0.01495361328125,5.536229644994397,5.964147533557447,3.9079016760842094,3.950473738168467,0.0,0.0,0.0,0.0,0.0,0.0,0.0,0.0,0.0,0.0,0.0,0.0,66.81869,1,1.0,1.0,1.0,1.0,87.35
2026-01-13 05:45:23.764,0.91292757,0.78637236,0.58367705,1.2725581,0.566457,-0.32009706,-0.16645671,0.23476444,0.94424385,0.2900929,0.18932517,0.9840017,0.2933401,0.15413052,0.07981405,0.5760491,-0.14382806,-0.3052382,-0.56835806,0.03445771,695.2176,719.7339,740.6214,738.93976,759.2962,756.72955,755.4904,1218.5558,-0.33929443359375,-0.0408935546875,0.9598388671875,0.43365478515625,-0.441131591796875,0.2392578125,5.544347328517273,5.961736642586367,3.913638986243235,3.949344586700999,0.0,0.0,0.0,0.0,0.0,0.0,0.0,0.0,0.0,0.0,0.0,0.0,67.486534,1,1.0,1.0,1.0,1.0,87.35
2026-01-13 05:45:24.769,0.8063252,0.041404746,0.8078266,1.2725581,0.504007,-0.16326876,-0.29909956,0.23476444,0.8406839,0.25467777,0.13899562,0.9840017,0.29347152,-0.14384659,-0.17435421,0.5760491,-0.34565562,-0.5358134,-0.6563236,0.03445771,716.1051,717.52124,732.5673,735.3995,745.4892,739.9133,744.9582,1215.1926,-0.33721923828125,-0.04034423828125,0.96209716796875,0.171966552734375,-0.2392578125,0.127105712890625,5.545568032806428,5.9611873256562475,3.915958324392628,3.9480018119829294,0.0,0.0,0.0,0.0,0.0,0.0,0.0,0.0,0.0,0.0,0.0,0.0,67.296,1,1.0,1.0,1.0,1.0,87.35
2026-01-13 05:45:25.774,0.8192983,0.10945023,0.48497483,1.2725581,0.41320813,0.14387192,-0.12020831,0.23476444,0.85139835,-0.050265346,-0.19309086,0.9840017,0.14675617,-0.14179578,-0.2161942,0.5760491,-0.339322,-0.5834472,-0.7118791,0.03445771,708.4935,714.42346,725.7523,729.11554,760.3583,749.56055,763.456,1211.7408,-0.340087890625,-0.042724609375,0.9619140625,-0.201873779296875,-0.43365478515625,-0.5084228515625,5.566808287437713,5.976781822950194,3.9427833011467945,3.9665565171780752,0.0,0.0,0.0,0.0,0.0,0.0,0.0,0.0,0.0,0.0,0.0,0.0,66.38455,1,1.0,1.0,1.0,1.0,87.35
2026-01-13 05:45:26.783,0.50300694,0.20725664,0.42201775,1.2725581,0.19631645,0.064424455,-0.1483821,0.23476444,0.6292996,0.070647135,-0.21322262,0.9840017,0.119504124,-0.28511143,-0.31990838,0.5760491,-0.23713765,-0.6430635,-0.85135996,0.03445771,715.30853,711.9453,722.8316,717.60974,749.56055,745.0467,746.81683,1212.8914,-0.3370361328125,-0.049072265625,0.9591064453125,0.067291259765625,-0.067291259765625,0.16448974609375,5.585118851775028,5.988592136947762,3.9637183797057913,3.980106334787688,0.0,0.0,0.0,0.0,0.0,0.0,0.0,0.0,0.0,0.0,0.0,0.0,66.05759,1,1.0,1.0,1.0,1.0,87.35
2026-01-13 05:45:27.790,0.6712898,0.19188403,0.41001362,1.2751217,0.3073849,-0.20258228,-0.2654046,0.32549885,0.7156234,0.054626677,-0.3238959,0.65253806,0.18022257,-0.2713119,-0.23653744,0.049875867,-0.21560782,-0.7039005,-0.8739013,-0.07015435,714.24646,705.9269,727.78796,728.23047,551.1292,538.2073,545.73035,826.03,-0.33868408203125,-0.04412841796875,0.96551513671875,-0.351409912109375,0.007476806640625,-0.7177734375,5.62650072717736,6.017370240564576,4.01504899506473,4.013614667524974,0.0,0.0,0.0,0.0,0.0,0.0,0.0,0.0,0.0,0.0,0.0,0.0,66.570984,1,1.0,1.0,1.0,1.0,87.34
2026-01-13 05:45:28.791,0.68665224,5.2733574E-4,0.31852758,1.1661501,0.02896934,-0.5468539,-0.404998,0.12071326,0.6394851,-0.04304759,-0.101203814,0.48405004,0.2975002,-0.21381395,-0.31964126,0.13156311,-0.1849065,-0.6412727,-0.73366666,-0.10532025,732.30176,714.689,717.4327,721.14996,495.2817,470.85394,522.7187,629.9884,-0.3369140625,-0.0380859375,0.96441650390625,-0.127105712890625,-0.28411865234375,0.321502685546875,5.621923086093031,6.017004029277829,4.008029945402093,4.012088787163531,0.0,0.0,0.0,0.0,0.0,0.0,0.0,0.0,0.0,0.0,0.0,0.0,66.23765,1,1.0,1.0,1.0,1.0,87.34
2026-01-13 05:45:29.804,0.6991621,0.0072232247,0.4183879,1.2854042,0.15394765,-0.23276967,-0.30375174,0.23599347,0.95356375,0.091763824,0.022913346,0.40629482,0.3296874,-0.18148093,-0.37613133,0.093348704,-0.41457957,-0.56747156,-0.70065403,-0.07388694,724.69025,720.0879,728.14197,738.0547,487.0506,467.4022,509.35422,514.5761,-0.33416748046875,-0.0372314453125,0.9647216796875,0.25421142578125,-1.353302001953125,-0.052337646484375,5.53561929284982,5.978704432205612,3.911258612879384,3.961154900698567,0.0,0.0,0.0,0.0,0.0,0.0,0.0,0.0,0.0,0.0,0.0,0.0,65.51758,1,1.0,1.0,1.0,1.0,87.34
2026-01-13 05:45:30.810,-0.0051395358,0.24562308,0.4858829,1.3623426,-0.005569769,-0.26259327,-0.40184093,0.42784086,0.8296314,-0.09636762,0.02980383,0.6003203,0.23817195,-0.17767814,-0.22925295,0.12117107,-0.46548057,-0.5288394,-0.53173125,-0.1101997,732.30176,717.60974,726.9029,720.3534,763.1905,765.13763,747.7019,1352.1119,-0.33935546875,-0.04132080078125,0.9647216796875,-0.13458251953125,0.007476806640625,0.2392578125,5.5338492716305465,5.973272298118876,3.901981260281811,3.9532508404262927,0.0,0.0,0.0,0.0,0.0,0.0,0.0,0.0,0.0,0.0,0.0,0.0,65.92916,1,1.0,1.0,1.0,1.0,87.34
2026-01-13 05:45:31.815,0.25103056,0.03276662,0.5408738,1.4420035,-0.038103398,-0.23775835,-0.32802036,0.40301558,0.7739612,-0.030528044,0.06482801,0.9333994,0.21970768,-0.095466405,-0.19242753,0.40956137,-0.24050386,-0.4536415,-0.542759,-0.3116546,729.5581,711.23724,721.06146,776.2009,723.7167,726.2833,713.1844,1088.0089,-0.33892822265625,-0.0440673828125,0.9581298828125,0.366363525390625,-0.7476806640625,0.112152099609375,5.552648117683523,5.983678802183916,3.9239844550938177,3.9674415277877118,0.0,0.0,0.0,0.0,0.0,0.0,0.0,0.0,0.0,0.0,0.0,0.0,66.626976,1,1.0,1.0,1.0,1.0,87.34
2026-01-13 05:45:32.821,0.7298999,0.74752337,0.6343272,1.3745332,0.06423753,-0.1932105,-0.39214197,0.98609394,0.50200737,0.057348702,-0.3494636,0.90458393,0.07314762,-0.029466249,-0.36969358,0.4486514,-0.11671572,-0.4679861,-0.6978384,-0.082011744,880.904,784.7861,739.20526,734.77997,757.9686,747.43634,775.13885,1247.2319,-0.333984375,-0.04217529296875,0.96051025390625,0.299072265625,-0.5084228515625,-0.13458251953125,5.57678754500155,6.000036239658584,3.9546241327515914,3.9895667930286343,0.0,0.0,0.0,0.0,0.0,0.0,0.0,0.0,0.0,0.0,0.0,0.0,66.36915,1,1.0,1.0,1.0,1.0,87.34
2026-01-13 05:45:33.827,0.95488876,0.971219,0.80614954,1.3745332,0.24001093,-0.05483526,-0.37849593,0.98609394,0.3027673,0.050470438,-0.49581113,0.90458393,0.13190994,0.022248672,-0.450483,0.4486514,-0.3002594,-0.5413406,-0.81467223,-0.082011744,706.1924,724.2477,703.09467,747.25934,754.6054,739.7363,764.5181,1259.2688,-0.33837890625,-0.0411376953125,0.9610595703125,0.01495361328125,-0.418701171875,-0.299072265625,5.596532436878621,6.0141048565910875,3.9794349474286532,4.006076818539446,0.0,0.0,0.0,0.0,0.0,0.0,0.0,0.0,0.0,0.0,0.0,0.0,66.03946,1,1.0,1.0,1.0,1.0,87.32
2026-01-13 05:45:34.840,0.95488876,0.971219,0.80614954,1.3745332,0.24001093,-0.05483526,-0.37849593,0.98609394,0.3027673,0.050470438,-0.49581113,0.90458393,0.13190994,0.022248672,-0.450483,0.4486514,-0.3002594,-0.5413406,-0.81467223,-0.082011744,653.35406,713.62695,710.70624,693.09344,757.7031,760.88934,775.22736,1309.6289,-0.338134765625,-0.0447998046875,0.9615478515625,0.059814453125,-0.1495361328125,-0.13458251953125,5.617559068259304,6.024053596547696,4.0067176882912525,4.021244069332189,0.0,0.0,0.0,0.0,0.0,0.0,0.0,0.0,0.0,0.0,0.0,0.0,66.85972,1,1.0,1.0,1.0,1.0,87.32
2026-01-13 05:45:35.844,0.95488876,0.8597855,0.5275902,1.3745332,0.24001093,0.011387267,-0.27041286,0.98609394,0.3027673,0.21171299,0.011379991,0.90458393,0.13190994,0.023096815,-0.12366359,0.4486514,-0.3002594,-0.3269301,-0.7565961,-0.082011744,692.73944,719.6454,723.0086,731.59375,766.1997,758.8537,761.5089,1221.9191,-0.33697509765625,-0.03704833984375,0.9627685546875,0.067291259765625,-0.441131591796875,-0.179443359375,5.646459242305033,6.038061178265742,4.044529003647808,4.041446725317693,0.0,0.0,0.0,0.0,0.0,0.0,0.0,0.0,0.0,0.0,0.0,0.0,67.581856,1,2.0,1.0,1.0,2.0,87.32
2026-01-13 05:45:36.857,0.95488876,0.61147696,0.40377888,1.3745332,0.24001093,0.08941614,-0.16556479,0.98609394,0.3027673,-0.02821858,0.14826551,0.90458393,0.13190994,-0.11009958,-0.28040764,0.4486514,-0.3002594,-0.3676586,-0.54762214,-0.082011744,702.74066,716.4591,733.0983,742.2145,751.6847,758.23413,760.3583,1222.8041,-0.33251953125,-0.0450439453125,0.9605712890625,-0.007476806640625,-1.024322509765625,0.22430419921875,5.552251388789548,5.986700045299573,3.935825286698615,3.978275278353957,0.0,0.0,0.0,0.0,0.0,0.0,0.0,0.0,0.0,0.0,0.0,0.0,67.14665,1,2.0,1.0,1.0,2.0,87.32
2026-01-13 05:45:37.858,0.4509497,0.5252751,0.32561427,0.8330709,0.0077196695,-0.25667432,-0.24178506,0.39494857,0.9181372,0.111539304,-0.025449708,0.5409905,0.36389923,-0.16562767,-0.2527454,0.18530078,-0.18273039,-0.5290065,-0.5821874,-0.15911254,711.06024,722.21204,736.5501,753.89734,745.4892,758.1456,770.448,1264.9331,-0.33447265625,-0.03985595703125,0.96221923828125,0.112152099609375,0.201873779296875,0.216827392578125,5.527745750184774,5.963079417304437,3.900913144028801,3.9489478578070236,0.0,0.0,0.0,0.0,0.0,0.0,0.0,0.0,0.0,0.0,0.0,0.0,67.01153,1,1.0,1.0,1.0,1.0,87.32
2026-01-13 05:45:38.869,0.3702884,0.27490216,0.36064777,1.0646957,0.08106695,-0.14336975,-0.20634662,0.21506554,0.9007785,0.15235439,-0.1255419,0.45527554,0.16504008,-0.19969967,-0.2507999,0.33083257,-0.3189196,-0.5917069,-0.5566477,-0.1415473,699.90845,710.88324,727.0799,733.8064,670.2588,667.4266,672.737,805.8506,-0.3365478515625,-0.0399169921875,0.9599609375,0.13458251953125,-0.01495361328125,0.291595458984375,5.519811172305271,5.95178790262976,3.88837040745774,3.9362525331998186,0.0,0.0,0.0,0.0,0.0,0.0,0.0,0.0,0.0,0.0,0.0,0.0,67.87054,1,1.0,1.0,1.0,1.0,87.32
2026-01-13 05:45:39.881,0.24851851,0.41653734,0.41235322,1.0715027,0.15284783,-0.09904797,-0.47523957,0.2827787,0.67078865,-0.13911928,-0.36849433,0.85041356,0.099177055,-0.13904895,-0.3399726,0.25837165,-0.2711261,-0.6312651,-0.7543955,0.013455807,720.70746,726.4603,733.8949,756.1985,762.571,751.2421,748.2329,1121.6414,-0.33734130859375,-0.04315185546875,0.9638671875,0.366363525390625,-0.590667724609375,0.186920166015625,5.527837303006461,5.952337219559879,3.8963355029444724,3.9369849557733114,0.0,0.0,0.0,0.0,0.0,0.0,0.0,0.0,0.0,0.0,0.0,0.0,68.29179,1,1.0,1.0,1.0,1.0,87.30
2026-01-13 05:45:40.883,0.4259124,0.70038986,0.52513367,1.0125358,0.2952047,0.05864749,-0.49090105,0.24717528,0.6072024,0.0055096634,0.027318569,0.74720204,0.09488103,-0.061857898,-0.26517913,0.14412393,-0.10619016,-0.45363805,-0.71382165,-0.008298498,724.4247,723.5397,721.41547,733.1868,776.732,754.16284,780.6263,1259.8883,-0.332763671875,-0.0379638671875,0.96209716796875,0.112152099609375,-0.61309814453125,0.01495361328125,5.541356603008845,5.961828195408054,3.910190496626374,3.947666118303412,0.0,0.0,0.0,0.0,0.0,0.0,0.0,0.0,0.0,0.0,0.0,0.0,67.40079,1,1.0,1.0,1.0,1.0,87.30
2026-01-13 05:45:41.884,0.646132,0.685298,0.56790364,1.0993612,0.27640104,0.21680805,0.010854615,0.16561858,0.5454882,0.28914177,0.17808989,0.42406866,0.23245157,-0.007469561,-0.2744356,0.22918221,-0.0859968,-0.5252655,-0.687954,-0.27624363,732.39026,713.80396,767.61584,844.3508,510.3278,493.06903,511.47836,564.9362,-0.3424072265625,-0.0333251953125,0.95654296875,1.218719482421875,-0.2392578125,-0.11962890625,5.5821891614810575,5.987249362229693,3.9616431824142286,3.9798316763226285,0.0,0.0,0.0,0.0,0.0,0.0,0.0,0.0,0.0,0.0,0.0,0.0,66.57533,1,1.0,1.0,1.0,1.0,87.30
2026-01-13 05:45:42.885,0.6433686,0.6288451,1.1679604,1.1019616,0.25187743,-0.012735025,0.36646318,0.119878985,0.60425663,0.23311296,0.08825825,0.16645639,0.24534425,-0.15206069,-0.23517264,0.2828215,0.07351286,-0.40984935,-0.4592893,-0.29004928,742.126,733.45233,724.86725,749.472,769.6515,762.3054,765.04913,1244.4882,-0.3331298828125,-0.041015625,0.96380615234375,0.321502685546875,0.6280517578125,-0.889739990234375,5.592168419044894,5.996587750041723,3.975315070452757,3.9903297332093555,0.0,0.0,0.0,0.0,0.0,0.0,0.0,0.0,0.0,0.0,0.0,0.0,67.3275,1,1.0,1.0,1.0,1.0,87.30
2026-01-13 05:45:43.895,0.89308214,0.7738369,1.0811229,1.1019616,0.2726009,-0.17053005,0.068285294,0.119878985,0.5195454,0.059014585,0.04963569,0.16645639,0.16883336,-0.25009802,-0.4238211,0.2828215,-0.0937158,-0.50245094,-0.58748794,-0.29004928,698.4923,717.52124,725.39825,743.8076,754.07434,739.20526,761.6859,1265.2872,-0.339111328125,-0.04876708984375,0.9637451171875,0.037384033203125,0.052337646484375,-0.5084228515625,5.509526738669146,5.947301814367117,3.8751562835276445,3.9252967122046587,0.0,0.0,0.0,0.0,0.0,0.0,0.0,0.0,0.0,0.0,0.0,0.0,69.666756,1,1.0,1.0,1.0,1.0,87.30
2026-01-13 05:45:44.911,0.726128,0.67648876,0.71228886,0.66437453,0.07264022,-0.46311918,-0.32093304,0.28724036,0.65226316,0.12322122,0.089794494,0.58488345,0.19236732,-0.3429448,-0.42352757,0.08266605,-0.090528466,-0.4578018,-0.6498925,-0.1508957,709.64417,705.1303,734.0719,740.44434,739.20526,739.02826,723.4511,1100.4883,-0.3372802734375,-0.04217529296875,0.9571533203125,-0.059814453125,-0.261688232421875,-0.291595458984375,5.523931049281167,5.951055480056267,3.885501752378228,3.927158286245619,0.0,0.0,0.0,0.0,0.0,0.0,0.0,0.0,0.0,0.0,0.0,0.0,71.62745,1,1.0,1.0,1.0,1.0,87.28
