TimeStamp,Delta_TP9,Delta_AF7,Delta_AF8,Delta_TP10,Theta_TP9,Theta_AF7,Theta_AF8,Theta_TP10,Alpha_TP9,Alpha_AF7,Alpha_AF8,Alpha_TP10,Beta_TP9,Beta_AF7,Beta_AF8,Beta_TP10,Gamma_TP9,Gamma_AF7,Gamma_AF8,Gamma_TP10,RAW_TP9,RAW_AF7,RAW_AF8,RAW_TP10,AUX_1,AUX_2,AUX_3,AUX_4,Accelerometer_X,Accelerometer_Y,Accelerometer_Z,Gyro_X,Gyro_Y,Gyro_Z,Optics1,Optics2,Optics3,Optics4,Optics5,Optics6,Optics7,Optics8,Optics9,Optics10,Optics11,Optics12,Optics13,Optics14,Optics15,Optics16,Heart_Rate,HeadBandOn,HSI_TP9,HSI_AF7,HSI_AF8,HSI_TP10,Battery,Elements
2026-01-16 05:43:44.033,,,,,,,,,,,,,,,,,,,,,,,,,,,,,,,,,,,,,,,,,,,,,,,,,,,,,,,,,,/muse/event/connected MuseS-0465
2026-01-16 05:43:44.046,0.46451873,0.0,0.0,0.0,0.73499185,0.0,0.0,0.0,0.821571,0.0,0.0,0.0,0.70201683,0.0,0.0,0.0,0.6189439,0.0,0.0,0.0,752.74677,795.84937,793.6367,753.10077,820.71967,807.35516,823.9944,1450.0,-0.99627685546875,0.02740478515625,0.08502197265625,0.04486083984375,-0.88226318359375,-0.0299072265625,4.967595069499082,5.653600362396586,3.52701142026083,3.7612950909567746,0.0,0.0,0.0,0.0,0.0,0.0,0.0,0.0,0.0,0.0,0.0,0.0,70.24506,1,2.0,4.0,1.0,2.0,52.12
2026-01-16 05:43:44.077,,,,,,,,,,,,,,,,,,,,,,,,,,,,,,,,,,,,,,,,,,,,,,,,,,,,,,,,,,/muse/elements/blink
2026-01-16 05:43:44.625,,,,,,,,,,,,,,,,,,,,,,,,,,,,,,,,,,,,,,,,,,,,,,,,,,,,,,,,,,/muse/elements/blink
2026-01-16 05:43:45.059,0.46451873,0.0,0.0,0.0,0.73499185,0.0,0.0,0.0,0.821571,0.0,0.0,0.0,0.70201683,0.0,0.0,0.0,0.6189439,0.0,0.0,0.0,703.18317,697.6073,721.94653,705.6614,762.3054,756.287,748.941,1350.5188,-1.00994873046875,0.03363037109375,0.06195068359375,-1.173858642578125,-2.4224853515625,2.7813720703125,4.957463223899101,5.637517583386978,3.515628352764466,3.748935460029087,0.0,0.0,0.0,0.0,0.0,0.0,0.0,0.0,0.0,0.0,0.0,0.0,68.59195,1,2.0,4.0,4.0,2.0,52.12
2026-01-16 05:43:45.095,,,,,,,,,,,,,,,,,,,,,,,,,,,,,,,,,,,,,,,,,,,,,,,,,,,,,,,,,,/muse/elements/blink
2026-01-16 05:43:45.591,,,,,,,,,,,,,,,,,,,,,,,,,,,,,,,,,,,,,,,,,,,,,,,,,,,,,,,,,,/muse/elements/blink
2026-01-16 05:43:45.741,,,,,,,,,,,,,,,,,,,,,,,,,,,,,,,,,,,,,,,,,,,,,,,,,,,,,,,,,,/muse/elements/blink
2026-01-16 05:43:46.072,0.46451873,0.0,0.0,0.0,0.73499185,0.0,0.0,0.0,0.821571,0.0,0.0,0.0,0.70201683,0.0,0.0,0.0,0.6189439,0.0,0.0,0.0,770.62506,744.6927,1072.6088,764.07556,772.5722,769.0319,757.34906,1317.5945,0.2373046875,0.8875732421875,0.62811279296875,-3.147735595703125,-1.472930908203125,30.40069580078125,4.967137305390649,5.624486565100255,3.5167575042319337,3.733463033164056,0.0,0.0,0.0,0.0,0.0,0.0,0.0,0.0,0.0,0.0,0.0,0.0,67.53042,1,2.0,4.0,1.0,2.0,52.12
2026-01-16 05:43:46.124,,,,,,,,,,,,,,,,,,,,,,,,,,,,,,,,,,,,,,,,,,,,,,,,,,,,,,,,,,/muse/elements/blink
2026-01-16 05:43:46.478,,,,,,,,,,,,,,,,,,,,,,,,,,,,,,,,,,,,,,,,,,,,,,,,,,,,,,,,,,/muse/elements/blink
2026-01-16 05:43:47.088,0.46451873,0.0,0.0,0.0,0.73499185,0.0,0.0,0.0,0.821571,0.0,0.0,0.0,0.70201683,0.0,0.0,0.0,0.6189439,0.0,0.0,0.0,787.1757,745.84326,723.8937,754.33984,743.7191,734.77997,724.77875,1216.4316,-0.132568359375,1.06048583984375,0.407958984375,6.930999755859375,12.568511962890625,-110.716552734375,4.956761318932838,5.606633764871373,3.501590253439191,3.7150303983978255,0.0,0.0,0.0,0.0,0.0,0.0,0.0,0.0,0.0,0.0,0.0,0.0,67.01425,1,2.0,4.0,1.0,2.0,52.12
2026-01-16 05:43:47.220,,,,,,,,,,,,,,,,,,,,,,,,,,,,,,,,,,,,,,,,,,,,,,,,,,,,,,,,,,/muse/elements/blink
2026-01-16 05:43:47.484,,,,,,,,,,,,,,,,,,,,,,,,,,,,,,,,,,,,,,,,,,,,,,,,,,,,,,,,,,/muse/elements/blink
2026-01-16 05:43:47.856,,,,,,,,,,,,,,,,,,,,,,,,,,,,,,,,,,,,,,,,,,,,,,,,,,,,,,,,,,/muse/elements/blink
2026-01-16 05:43:48.101,0.46451873,0.0,0.0,0.0,0.73499185,0.0,0.0,0.0,0.821571,0.0,0.0,0.0,0.70201683,0.0,0.0,0.0,0.6189439,0.0,0.0,0.0,800.27466,669.7278,735.75354,808.7713,772.8377,762.2169,724.69025,1203.2443,-1.03564453125,-0.113525390625,0.03912353515625,1.487884521484375,16.01531982421875,8.01513671875,5.050206232267601,5.7105767350928645,3.5972934697088905,3.804111293898863,0.0,0.0,0.0,0.0,0.0,0.0,0.0,0.0,0.0,0.0,0.0,0.0,68.16633,1,2.0,4.0,1.0,2.0,52.11
2026-01-16 05:43:48.330,,,,,,,,,,,,,,,,,,,,,,,,,,,,,,,,,,,,,,,,,,,,,,,,,,,,,,,,,,/muse/elements/blink
2026-01-16 05:43:49.001,,,,,,,,,,,,,,,,,,,,,,,,,,,,,,,,,,,,,,,,,,,,,,,,,,,,,,,,,,/muse/elements/blink
2026-01-16 05:43:49.108,0.46451873,0.0,0.0,0.0,0.73499185,0.0,0.0,0.0,0.821571,0.0,0.0,0.0,0.70201683,0.0,0.0,0.0,0.6189439,0.0,0.0,0.0,760.80084,733.2753,704.33374,752.92377,752.83527,749.118,756.99506,1325.029,-0.946044921875,0.0181884765625,0.20703125,0.79254150390625,-27.2454833984375,-1.981353759765625,5.011174212621891,5.702764227642277,3.5530124216198176,3.7941625539422548,0.0,0.0,0.0,0.0,0.0,0.0,0.0,0.0,0.0,0.0,0.0,0.0,68.38354,1,2.0,2.0,2.0,2.0,52.11
2026-01-16 05:43:49.602,,,,,,,,,,,,,,,,,,,,,,,,,,,,,,,,,,,,,,,,,,,,,,,,,,,,,,,,,,/muse/elements/blink
2026-01-16 05:43:50.101,,,,,,,,,,,,,,,,,,,,,,,,,,,,,,,,,,,,,,,,,,,,,,,,,,,,,,,,,,/muse/elements/blink
2026-01-16 05:43:50.115,0.46451873,0.0,0.0,0.0,0.73499185,0.0,0.0,0.0,0.821571,0.0,0.0,0.0,0.70201683,0.0,0.0,0.0,0.6189439,0.0,0.0,0.0,746.28577,449.6124,525.9934,749.82605,721.5925,696.89923,692.2084,1240.2399,-1.0184326171875,-0.03057861328125,0.39154052734375,4.149627685546875,5.734710693359375,8.291778564453125,5.0314073862146245,5.711919509810934,3.5734287008559233,3.8044775051856092,0.0,0.0,0.0,0.0,0.0,0.0,0.0,0.0,0.0,0.0,0.0,0.0,68.385414,1,2.0,4.0,2.0,2.0,52.11
2026-01-16 05:43:50.452,,,,,,,,,,,,,,,,,,,,,,,,,,,,,,,,,,,,,,,,,,,,,,,,,,,,,,,,,,/muse/elements/blink
2026-01-16 05:43:50.618,,,,,,,,,,,,,,,,,,,,,,,,,,,,,,,,,,,,,,,,,,,,,,,,,,,,,,,,,,/muse/elements/blink
2026-01-16 05:43:50.832,,,,,,,,,,,,,,,,,,,,,,,,,,,,,,,,,,,,,,,,,,,,,,,,,,,,,,,,,,/muse/elements/blink
2026-01-16 05:43:51.130,0.46451873,0.0,0.0,0.0,0.73499185,0.0,0.0,0.0,0.821571,0.0,0.0,0.0,0.70201683,0.0,0.0,0.0,0.6189439,0.0,0.0,0.0,753.4548,799.4781,802.9299,747.08234,744.7812,739.38226,726.1948,1331.2245,-0.98583984375,0.00848388671875,0.3309326171875,4.62066650390625,-1.084136962890625,4.658050537109375,5.035740886441123,5.709844312519372,3.5770908137233866,3.8037450826121164,0.0,0.0,0.0,0.0,0.0,0.0,0.0,0.0,0.0,0.0,0.0,0.0,69.4077,1,2.0,2.0,2.0,2.0,52.11
2026-01-16 05:43:51.488,,,,,,,,,,,,,,,,,,,,,,,,,,,,,,,,,,,,,,,,,,,,,,,,,,,,,,,,,,/muse/elements/blink
2026-01-16 05:43:52.089,,,,,,,,,,,,,,,,,,,,,,,,,,,,,,,,,,,,,,,,,,,,,,,,,,,,,,,,,,/muse/elements/blink
2026-01-16 05:43:52.141,0.46451873,0.0,0.0,0.0,0.73499185,0.0,0.0,0.0,0.821571,0.0,0.0,0.0,0.70201683,0.0,0.0,0.0,0.6189439,0.0,0.0,0.0,808.5058,707.7855,730.6202,882.85114,707.874,689.8187,679.46344,892.76385,-1.1907958984375,0.0118408203125,-0.02056884765625,-4.17205810546875,23.305206298828125,-9.757232666015625,5.148930691652957,5.746099229907255,3.7066380564098895,3.8538549936819018,0.0,0.0,0.0,0.0,0.0,0.0,0.0,0.0,0.0,0.0,0.0,0.0,72.6001,1,2.0,1.0,1.0,2.0,52.11
2026-01-16 05:43:52.975,,,,,,,,,,,,,,,,,,,,,,,,,,,,,,,,,,,,,,,,,,,,,,,,,,,,,,,,,,/muse/elements/blink
2026-01-16 05:43:53.159,0.46451873,0.0,0.0,0.0,0.73499185,0.0,0.0,0.0,0.821571,0.0,0.0,0.0,0.70201683,0.0,0.0,0.0,0.6189439,0.0,0.0,0.0,733.2753,811.33795,799.4781,675.5692,756.11,758.23413,753.10077,1282.7229,-0.980224609375,0.003173828125,0.0582275390625,5.5029296875,10.953521728515625,15.3424072265625,5.0700121593591305,5.7617242448084305,3.617465608087166,3.852207042891543,0.0,0.0,0.0,0.0,0.0,0.0,0.0,0.0,0.0,0.0,0.0,0.0,73.65034,1,2.0,2.0,2.0,2.0,52.11
2026-01-16 05:43:53.492,,,,,,,,,,,,,,,,,,,,,,,,,,,,,,,,,,,,,,,,,,,,,,,,,,,,,,,,,,/muse/elements/blink
2026-01-16 05:43:54.172,0.46451873,0.0,0.0,0.0,0.73499185,0.0,0.0,0.0,0.821571,0.0,0.0,0.0,0.70201683,0.0,0.0,0.0,0.6189439,0.0,0.0,0.0,739.5593,821.4277,775.9354,698.0498,775.8469,778.0596,782.5734,1327.3302,-0.97723388671875,0.21630859375,0.01092529296875,0.13458251953125,14.51995849609375,21.09954833984375,5.081151085997663,5.752965691533748,3.6313511193762964,3.8545568986481653,0.0,0.0,0.0,0.0,0.0,0.0,0.0,0.0,0.0,0.0,0.0,0.0,72.53995,1,2.0,2.0,4.0,2.0,52.09
2026-01-16 05:43:54.205,,,,,,,,,,,,,,,,,,,,,,,,,,,,,,,,,,,,,,,,,,,,,,,,,,,,,,,,,,/muse/elements/blink
2026-01-16 05:43:54.394,,,,,,,,,,,,,,,,,,,,,,,,,,,,,,,,,,,,,,,,,,,,,,,,,,,,,,,,,,/muse/elements/blink
2026-01-16 05:43:55.174,0.46451873,0.0,0.0,0.0,0.73499185,0.0,0.0,0.0,0.821571,0.0,0.0,0.0,0.70201683,0.0,0.0,0.0,0.6189439,0.0,0.0,0.0,755.2249,792.2206,770.1825,757.26056,765.5802,767.0848,754.07434,1352.1119,-1.0009765625,0.03936767578125,0.00335693359375,-2.190704345703125,-0.052337646484375,2.03369140625,5.090031709701261,5.750188589275922,3.645023007414825,3.856082779009608,0.0,0.0,0.0,0.0,0.0,0.0,0.0,0.0,0.0,0.0,0.0,0.0,74.6859,1,2.0,4.0,4.0,2.0,52.09
2026-01-16 05:43:55.355,,,,,,,,,,,,,,,,,,,,,,,,,,,,,,,,,,,,,,,,,,,,,,,,,,,,,,,,,,/muse/elements/blink
2026-01-16 05:43:55.614,,,,,,,,,,,,,,,,,,,,,,,,,,,,,,,,,,,,,,,,,,,,,,,,,,,,,,,,,,/muse/elements/blink
2026-01-16 05:43:56.186,0.46451873,0.0,0.0,0.0,0.73499185,0.0,0.0,0.0,0.821571,0.0,0.0,0.0,0.70201683,0.0,0.0,0.0,0.6189439,0.0,0.0,0.0,767.1733,795.76086,770.448,765.9342,753.1893,755.0479,742.303,1221.2996,-0.996337890625,0.0430908203125,-0.010498046875,-0.25421142578125,-0.411224365234375,-1.3458251953125,5.038029706983287,5.7176263023627305,3.5906711489402285,3.8252294781012326,0.0,0.0,0.0,0.0,0.0,0.0,0.0,0.0,0.0,0.0,0.0,0.0,76.693,1,2.0,1.0,1.0,2.0,52.09
2026-01-16 05:43:56.440,,,,,,,,,,,,,,,,,,,,,,,,,,,,,,,,,,,,,,,,,,,,,,,,,,,,,,,,,,/muse/elements/blink
2026-01-16 05:43:57.097,,,,,,,,,,,,,,,,,,,,,,,,,,,,,,,,,,,,,,,,,,,,,,,,,,,,,,,,,,/muse/elements/blink
2026-01-16 05:43:57.203,0.46451873,0.0,0.0,0.0,0.73499185,0.0,0.0,0.0,0.821571,0.0,0.0,0.0,0.70201683,0.0,0.0,0.0,0.6189439,0.0,0.0,0.0,775.8469,607.5078,617.59753,761.42035,704.42224,701.236,670.87836,1104.7366,-0.97900390625,0.0443115234375,-0.01318359375,0.755157470703125,5.630035400390625,1.906585693359375,5.0351000166893165,5.703099921321794,3.594791025916124,3.8198888968361824,0.0,0.0,0.0,0.0,0.0,0.0,0.0,0.0,0.0,0.0,0.0,0.0,79.18175,1,2.0,1.0,1.0,2.0,52.09
2026-01-16 05:43:57.632,,,,,,,,,,,,,,,,,,,,,,,,,,,,,,,,,,,,,,,,,,,,,,,,,,,,,,,,,,/muse/elements/blink
2026-01-16 05:43:58.214,0.46451873,0.0,0.0,0.0,0.73499185,0.0,0.0,0.0,0.821571,0.0,0.0,0.0,0.70201683,0.0,0.0,0.0,0.6189439,0.0,0.0,0.0,731.59375,701.5016,690.43823,726.6374,736.46155,729.9121,740.9754,1244.7537,-0.99859619140625,0.04937744140625,-0.04840087890625,0.605621337890625,3.69354248046875,0.19439697265625,4.99463366950385,5.6731926662375125,3.5502048017547625,3.7901952650025033,0.0,0.0,0.0,0.0,0.0,0.0,0.0,0.0,0.0,0.0,0.0,0.0,80.121864,1,2.0,1.0,1.0,2.0,52.09
2026-01-16 05:43:58.827,,,,,,,,,,,,,,,,,,,,,,,,,,,,,,,,,,,,,,,,,,,,,,,,,,,,,,,,,,/muse/elements/blink
2026-01-16 05:43:59.226,0.46451873,0.0,0.0,0.0,0.73499185,0.0,0.0,0.0,0.821571,0.0,0.0,0.0,0.70201683,0.0,0.0,0.0,0.6189439,0.0,0.0,0.0,736.9041,715.8396,693.6245,731.68225,736.10754,746.02026,747.8789,1274.2263,-0.9903564453125,0.075439453125,-0.02001953125,1.39068603515625,4.583282470703125,-2.22808837890625,4.999150275373721,5.671544715447155,3.5560336647354744,3.7916295925422596,0.0,0.0,0.0,0.0,0.0,0.0,0.0,0.0,0.0,0.0,0.0,0.0,80.86333,1,2.0,1.0,1.0,2.0,52.07
2026-01-16 05:43:59.230,,,,,,,,,,,,,,,,,,,,,,,,,,,,,,,,,,,,,,,,,,,,,,,,,,,,,,,,,,/muse/elements/blink
2026-01-16 05:43:59.593,,,,,,,,,,,,,,,,,,,,,,,,,,,,,,,,,,,,,,,,,,,,,,,,,,,,,,,,,,/muse/elements/blink
2026-01-16 05:44:00.078,,,,,,,,,,,,,,,,,,,,,,,,,,,,,,,,,,,,,,,,,,,,,,,,,,,,,,,,,,/muse/elements/blink
2026-01-16 05:44:00.243,0.46451873,0.0,0.0,0.0,0.73499185,0.0,0.0,0.0,0.821571,0.0,0.0,0.0,0.70201683,0.0,0.0,0.0,0.6189439,0.0,0.0,0.0,746.99384,718.40625,721.5925,761.42035,760.0928,754.6939,756.287,1217.3168,-1.00238037109375,0.06378173828125,0.02899169921875,-0.426177978515625,2.205657958984375,-0.8074951171875,4.997807500655652,5.663030303030303,3.557162816202942,3.788303173354314,0.0,0.0,0.0,0.0,0.0,0.0,0.0,0.0,0.0,0.0,0.0,0.0,80.917046,1,2.0,1.0,1.0,2.0,52.07
2026-01-16 05:44:00.477,,,,,,,,,,,,,,,,,,,,,,,,,,,,,,,,,,,,,,,,,,,,,,,,,,,,,,,,,,/muse/elements/jaw_clench
2026-01-16 05:44:00.776,,,,,,,,,,,,,,,,,,,,,,,,,,,,,,,,,,,,,,,,,,,,,,,,,,,,,,,,,,/muse/elements/blink
2026-01-16 05:44:01.252,0.46451873,0.0,0.0,0.0,0.73499185,0.0,0.0,0.0,0.821571,0.0,0.0,0.0,0.70201683,0.0,0.0,0.0,0.6189439,0.0,0.0,0.0,759.65027,718.22925,718.22925,751.5962,771.06757,771.4216,748.2329,1200.3235,-1.00201416015625,0.0693359375,0.00213623046875,2.250518798828125,-4.329071044921875,-3.656158447265625,4.955143885749708,5.6310478506544595,3.5082125742078536,3.7531163722194405,0.0,0.0,0.0,0.0,0.0,0.0,0.0,0.0,0.0,0.0,0.0,0.0,80.881775,1,2.0,1.0,1.0,2.0,52.07
2026-01-16 05:44:01.268,,,,,,,,,,,,,,,,,,,,,,,,,,,,,,,,,,,,,,,,,,,,,,,,,,,,,,,,,,/muse/elements/blink
2026-01-16 05:44:02.267,0.46451873,0.0,0.0,0.0,0.73499185,0.0,0.0,0.0,0.821571,0.0,0.0,0.0,0.70201683,0.0,0.0,0.0,0.6189439,0.0,0.0,0.0,755.4904,709.3786,716.8132,753.2778,742.2145,747.08234,723.9822,1161.4692,-0.998779296875,0.03204345703125,0.00799560546875,1.5252685546875,-4.598236083984375,0.6878662109375,4.967015234961734,5.6467339007700925,3.5152621414777196,3.7613561261712323,0.0,0.0,0.0,0.0,0.0,0.0,0.0,0.0,0.0,0.0,0.0,0.0,81.41439,1,2.0,1.0,1.0,2.0,52.07
2026-01-16 05:44:02.476,,,,,,,,,,,,,,,,,,,,,,,,,,,,,,,,,,,,,,,,,,,,,,,,,,,,,,,,,,/muse/elements/jaw_clench
2026-01-16 05:44:02.588,,,,,,,,,,,,,,,,,,,,,,,,,,,,,,,,,,,,,,,,,,,,,,,,,,,,,,,,,,/muse/elements/blink
2026-01-16 05:44:02.717,,,,,,,,,,,,,,,,,,,,,,,,,,,,,,,,,,,,,,,,,,,,,,,,,,,,,,,,,,/muse/elements/jaw_clench
2026-01-16 05:44:03.102,,,,,,,,,,,,,,,,,,,,,,,,,,,,,,,,,,,,,,,,,,,,,,,,,,,,,,,,,,/muse/elements/blink
2026-01-16 05:44:03.284,0.46451873,0.0,0.0,0.0,0.73499185,0.0,0.0,0.0,0.821571,0.0,0.0,0.0,0.70201683,0.0,0.0,0.0,0.6189439,0.0,0.0,0.0,750.6226,705.4843,723.5397,748.587,728.319,738.4087,714.15796,1309.7174,-0.9974365234375,0.0338134765625,0.00360107421875,0.411224365234375,-2.64678955078125,-0.01495361328125,4.9869432324821785,5.653936056076104,3.532229931096965,3.77023674987483,0.0,0.0,0.0,0.0,0.0,0.0,0.0,0.0,0.0,0.0,0.0,0.0,81.052284,1,2.0,1.0,1.0,2.0,52.07
2026-01-16 05:44:03.518,,,,,,,,,,,,,,,,,,,,,,,,,,,,,,,,,,,,,,,,,,,,,,,,,,,,,,,,,,/muse/elements/blink
2026-01-16 05:44:04.300,0.46451873,0.0,0.0,0.0,0.73499185,0.0,0.0,0.0,0.821571,0.0,0.0,0.0,0.70201683,0.0,0.0,0.0,0.6189439,0.0,0.0,0.0,724.69025,733.45233,721.32697,719.7339,743.5421,741.595,725.7523,1172.5325,-0.99700927734375,0.03033447265625,0.0106201171875,0.5084228515625,-0.411224365234375,0.28411865234375,4.973637555730396,5.653051045466467,3.5166049161957895,3.7658422144338743,0.0,0.0,0.0,0.0,0.0,0.0,0.0,0.0,0.0,0.0,0.0,0.0,79.313446,1,2.0,1.0,1.0,2.0,52.07
2026-01-16 05:44:04.498,,,,,,,,,,,,,,,,,,,,,,,,,,,,,,,,,,,,,,,,,,,,,,,,,,,,,,,,,,/muse/elements/blink
2026-01-16 05:44:05.086,,,,,,,,,,,,,,,,,,,,,,,,,,,,,,,,,,,,,,,,,,,,,,,,,,,,,,,,,,/muse/elements/blink
2026-01-16 05:44:05.312,0.46451873,0.0,0.0,0.0,0.73499185,0.0,0.0,0.0,0.821571,0.0,0.0,0.0,0.70201683,0.0,0.0,0.0,0.6189439,0.0,0.0,0.0,723.0971,717.78674,716.4591,721.76953,751.1536,749.2065,766.7308,1270.5975,-0.99951171875,0.0347900390625,0.01422119140625,0.07476806640625,-0.710296630859375,0.097198486328125,4.988865841737597,5.662725126958015,3.5344271988174425,3.7763707889278306,0.0,0.0,0.0,0.0,0.0,0.0,0.0,0.0,0.0,0.0,0.0,0.0,79.070076,1,2.0,1.0,1.0,2.0,52.06
2026-01-16 05:44:05.333,,,,,,,,,,,,,,,,,,,,,,,,,,,,,,,,,,,,,,,,,,,,,,,,,,,,,,,,,,/muse/elements/blink
2026-01-16 05:44:05.454,,,,,,,,,,,,,,,,,,,,,,,,,,,,,,,,,,,,,,,,,,,,,,,,,,,,,,,,,,/muse/elements/jaw_clench
2026-01-16 05:44:05.684,,,,,,,,,,,,,,,,,,,,,,,,,,,,,,,,,,,,,,,,,,,,,,,,,,,,,,,,,,/muse/elements/blink
2026-01-16 05:44:05.845,,,,,,,,,,,,,,,,,,,,,,,,,,,,,,,,,,,,,,,,,,,,,,,,,,,,,,,,,,/muse/elements/blink
2026-01-16 05:44:06.316,0.46451873,0.0,0.0,0.0,0.73499185,0.0,0.0,0.0,0.821571,0.0,0.0,0.0,0.70201683,0.0,0.0,0.0,0.6189439,0.0,0.0,0.0,741.4179,723.7167,716.3706,737.1696,735.84204,737.2581,728.319,1195.0132,-0.99957275390625,0.03948974609375,0.0062255859375,0.201873779296875,-0.485992431640625,0.112152099609375,4.9996385570893835,5.670354528765229,3.5432773049138118,3.781101018048304,0.0,0.0,0.0,0.0,0.0,0.0,0.0,0.0,0.0,0.0,0.0,0.0,78.326675,1,2.0,1.0,1.0,2.0,52.06
2026-01-16 05:44:06.963,,,,,,,,,,,,,,,,,,,,,,,,,,,,,,,,,,,,,,,,,,,,,,,,,,,,,,,,,,/muse/elements/jaw_clench
2026-01-16 05:44:07.229,,,,,,,,,,,,,,,,,,,,,,,,,,,,,,,,,,,,,,,,,,,,,,,,,,,,,,,,,,/muse/elements/blink
2026-01-16 05:44:07.330,0.46451873,0.0,0.0,0.0,0.73499185,0.0,0.0,0.0,0.821571,0.0,0.0,0.0,0.70201683,0.0,0.0,0.0,0.6189439,0.0,0.0,0.0,715.7511,681.76465,697.9613,714.866,771.59863,765.31464,760.1813,1268.4734,-0.9993896484375,0.03753662109375,0.0137939453125,0.07476806640625,-0.64300537109375,0.097198486328125,5.016423241065255,5.672948525379682,3.557406957060773,3.786838328207329,0.0,0.0,0.0,0.0,0.0,0.0,0.0,0.0,0.0,0.0,0.0,0.0,76.06796,1,2.0,1.0,1.0,2.0,52.06
2026-01-16 05:44:07.813,,,,,,,,,,,,,,,,,,,,,,,,,,,,,,,,,,,,,,,,,,,,,,,,,,,,,,,,,,/muse/elements/jaw_clench
2026-01-16 05:44:08.331,,,,,,,,,,,,,,,,,,,,,,,,,,,,,,,,,,,,,,,,,,,,,,,,,,,,,,,,,,/muse/elements/blink
2026-01-16 05:44:08.343,0.46451873,0.0,0.0,0.0,0.73499185,0.0,0.0,0.0,0.821571,0.0,0.0,0.0,0.70201683,0.0,0.0,0.0,0.6189439,0.0,0.0,0.0,730.0891,787.7953,771.33307,737.5237,777.88257,779.9182,771.06757,1359.5465,-0.9981689453125,0.03656005859375,0.013916015625,-0.31402587890625,-0.590667724609375,0.022430419921875,5.007390029325514,5.666631380683309,3.5495639320029566,3.7812841236916768,0.0,0.0,0.0,0.0,0.0,0.0,0.0,0.0,0.0,0.0,0.0,0.0,73.44761,1,2.0,1.0,1.0,2.0,52.06
2026-01-16 05:44:09.209,,,,,,,,,,,,,,,,,,,,,,,,,,,,,,,,,,,,,,,,,,,,,,,,,,,,,,,,,,/muse/elements/blink
2026-01-16 05:44:09.361,0.46451873,0.0,0.0,0.0,0.73499185,0.0,0.0,0.0,0.821571,0.0,0.0,0.0,0.70201683,0.0,0.0,0.0,0.6189439,0.0,0.0,0.0,743.6306,788.3263,775.8469,741.595,739.20526,750.18005,730.9742,1309.7174,-0.99957275390625,0.03961181640625,0.0089111328125,0.2691650390625,-0.55328369140625,-0.037384033203125,4.971837016903893,5.639897956750828,3.5083956798512266,3.7492711537086043,0.0,0.0,0.0,0.0,0.0,0.0,0.0,0.0,0.0,0.0,0.0,0.0,72.08759,1,2.0,1.0,1.0,2.0,52.06
2026-01-16 05:44:09.955,,,,,,,,,,,,,,,,,,,,,,,,,,,,,,,,,,,,,,,,,,,,,,,,,,,,,,,,,,/muse/elements/blink
2026-01-16 05:44:10.369,0.46451873,0.0,0.0,0.0,0.73499185,0.0,0.0,0.0,0.821571,0.0,0.0,0.0,0.70201683,0.0,0.0,0.0,0.6189439,0.0,0.0,0.0,751.2421,769.563,761.06635,748.8525,662.1162,650.6104,649.54834,1128.2793,-1.00018310546875,0.03424072265625,0.00799560546875,0.43365478515625,-0.052337646484375,0.485992431640625,5.024724030231504,5.663762725603796,3.5607028586414895,3.776889588250721,0.0,0.0,0.0,0.0,0.0,0.0,0.0,0.0,0.0,0.0,0.0,0.0,71.97983,1,2.0,1.0,1.0,2.0,52.05
2026-01-16 05:44:11.087,,,,,,,,,,,,,,,,,,,,,,,,,,,,,,,,,,,,,,,,,,,,,,,,,,,,,,,,,,/muse/elements/blink
2026-01-16 05:44:11.380,0.46451873,0.0,0.0,0.0,0.73499185,0.0,0.0,0.0,0.821571,0.0,0.0,0.0,0.70201683,0.0,0.0,0.0,0.6189439,0.0,0.0,0.0,745.66626,766.0227,757.26056,744.2501,598.0376,579.27423,581.92944,926.48474,-0.99932861328125,0.0391845703125,0.00970458984375,0.25421142578125,-0.6878662109375,0.04486083984375,5.019902248289345,5.663732207996567,3.5484347805354886,3.770267267482059,0.0,0.0,0.0,0.0,0.0,0.0,0.0,0.0,0.0,0.0,0.0,0.0,71.46625,1,2.0,1.0,1.0,2.0,52.05
2026-01-16 05:44:11.450,,,,,,,,,,,,,,,,,,,,,,,,,,,,,,,,,,,,,,,,,,,,,,,,,,,,,,,,,,/muse/elements/blink
2026-01-16 05:44:11.978,,,,,,,,,,,,,,,,,,,,,,,,,,,,,,,,,,,,,,,,,,,,,,,,,,,,,,,,,,/muse/elements/jaw_clench
2026-01-16 05:44:12.174,,,,,,,,,,,,,,,,,,,,,,,,,,,,,,,,,,,,,,,,,,,,,,,,,,,,,,,,,,/muse/elements/blink
2026-01-16 05:44:12.350,,,,,,,,,,,,,,,,,,,,,,,,,,,,,,,,,,,,,,,,,,,,,,,,,,,,,,,,,,/muse/elements/blink
2026-01-16 05:44:12.382,-0.566952,0.0,0.0,0.0,0.23080753,0.0,0.0,0.0,0.994236,0.0,0.0,0.0,1.2223637,0.0,0.0,0.0,1.4579197,0.0,0.0,0.0,742.3915,718.49475,724.1592,738.1432,756.287,754.16284,746.55133,1199.9695,-0.9990234375,0.035888671875,0.00701904296875,0.10467529296875,-0.37384033203125,-0.179443359375,5.015629783277305,5.662480986100183,3.5409884843716473,3.766574637007367,0.0,0.0,0.0,0.0,0.0,0.0,0.0,0.0,0.0,0.0,0.0,0.0,66.04058,1,1.0,1.0,1.0,1.0,52.05
2026-01-16 05:44:12.735,,,,,,,,,,,,,,,,,,,,,,,,,,,,,,,,,,,,,,,,,,,,,,,,,,,,,,,,,,/muse/elements/blink
2026-01-16 05:44:12.735,,,,,,,,,,,,,,,,,,,,,,,,,,,,,,,,,,,,,,,,,,,,,,,,,,,,,,,,,,/muse/elements/jaw_clench
2026-01-16 05:44:13.238,,,,,,,,,,,,,,,,,,,,,,,,,,,,,,,,,,,,,,,,,,,,,,,,,,,,,,,,,,/muse/elements/blink
2026-01-16 05:44:13.396,-0.39269528,0.0,0.0,-0.3823799,0.3880023,0.0,0.0,0.48913962,1.0291979,0.0,0.0,1.1094488,1.1538308,0.0,0.0,1.6230464,1.5162183,0.0,0.0,1.623042,753.1893,740.5329,741.4179,743.8076,768.23535,771.51013,741.4179,1201.3856,-0.999755859375,0.03900146484375,0.01287841796875,0.299072265625,-0.299072265625,0.097198486328125,5.015721336098991,5.665929475717045,3.540195026583697,3.7671239539374866,0.0,0.0,0.0,0.0,0.0,0.0,0.0,0.0,0.0,0.0,0.0,0.0,61.549873,1,1.0,1.0,1.0,1.0,52.05
2026-01-16 05:44:13.812,,,,,,,,,,,,,,,,,,,,,,,,,,,,,,,,,,,,,,,,,,,,,,,,,,,,,,,,,,/muse/elements/blink
2026-01-16 05:44:13.932,,,,,,,,,,,,,,,,,,,,,,,,,,,,,,,,,,,,,,,,,,,,,,,,,,,,,,,,,,/muse/elements/jaw_clench
2026-01-16 05:44:14.413,-0.31515706,0.0,-0.010797104,-0.36752132,0.46924287,0.0,-0.052930027,0.54499197,1.0046517,0.0,0.12505409,1.1094488,1.2488855,0.0,0.39726388,1.6895397,1.5645745,0.0,0.64168686,1.6805494,711.5028,695.74866,705.3073,707.16595,751.3306,753.01227,763.81006,1263.8711,-1.00189208984375,0.0328369140625,0.01043701171875,0.037384033203125,-0.52337646484375,-0.127105712890625,5.016606346708628,5.665654817251985,3.540622273084901,3.7671239539374866,0.0,0.0,0.0,0.0,0.0,0.0,0.0,0.0,0.0,0.0,0.0,0.0,60.682514,1,1.0,1.0,1.0,1.0,52.05
2026-01-16 05:44:14.565,,,,,,,,,,,,,,,,,,,,,,,,,,,,,,,,,,,,,,,,,,,,,,,,,,,,,,,,,,/muse/elements/blink
2026-01-16 05:44:15.431,-0.31515706,-0.047818992,0.036293175,-0.3710535,0.46924287,-0.039299067,-0.09598398,0.54634696,1.0046517,0.53294003,0.008707544,1.1013914,1.2488855,1.0091861,0.34219024,1.6768608,1.5645745,1.1563283,0.6438181,1.6687737,745.57776,770.3595,762.571,744.3386,734.1604,737.6122,716.8132,1318.568,-0.9984130859375,0.03692626953125,0.01092529296875,0.19439697265625,-0.560760498046875,-0.171966552734375,5.009312638580932,5.6599480247001885,3.528964547123477,3.7566258970507596,0.0,0.0,0.0,0.0,0.0,0.0,0.0,0.0,0.0,0.0,0.0,0.0,61.289764,1,1.0,1.0,1.0,1.0,52.05
2026-01-16 05:44:15.562,,,,,,,,,,,,,,,,,,,,,,,,,,,,,,,,,,,,,,,,,,,,,,,,,,,,,,,,,,/muse/elements/jaw_clench
2026-01-16 05:44:15.710,,,,,,,,,,,,,,,,,,,,,,,,,,,,,,,,,,,,,,,,,,,,,,,,,,,,,,,,,,/muse/elements/blink
2026-01-16 05:44:15.894,,,,,,,,,,,,,,,,,,,,,,,,,,,,,,,,,,,,,,,,,,,,,,,,,,,,,,,,,,/muse/elements/blink
2026-01-16 05:44:16.091,,,,,,,,,,,,,,,,,,,,,,,,,,,,,,,,,,,,,,,,,,,,,,,,,,,,,,,,,,/muse/elements/blink
2026-01-16 05:44:16.443,-0.31515706,-0.047818992,0.036293175,0.4298258,0.46924287,-0.039299067,-0.09598398,0.9414254,1.0046517,0.53294003,0.008707544,1.4152547,1.2488855,1.0091861,0.34219024,1.9237695,1.5645745,1.1563283,0.6438181,1.9254667,720.79596,679.19794,694.421,719.0258,739.5593,746.72833,740.35583,1170.0543,-1.00238037109375,0.0382080078125,0.0030517578125,0.16448974609375,-0.22430419921875,0.037384033203125,5.012150776053215,5.661138211382114,3.5325961423837113,3.7583043654483466,0.0,0.0,0.0,0.0,0.0,0.0,0.0,0.0,0.0,0.0,0.0,0.0,61.82993,1,1.0,1.0,1.0,1.0,52.01
2026-01-16 05:44:16.477,,,,,,,,,,,,,,,,,,,,,,,,,,,,,,,,,,,,,,,,,,,,,,,,,,,,,,,,,,/muse/elements/blink
2026-01-16 05:44:17.435,,,,,,,,,,,,,,,,,,,,,,,,,,,,,,,,,,,,,,,,,,,,,,,,,,,,,,,,,,/muse/elements/blink
2026-01-16 05:44:17.446,0.43991154,-0.047818992,0.036293175,0.41154212,0.74327534,-0.039299067,-0.09598398,0.9067035,1.3696842,0.53294003,0.008707544,1.401873,1.7804825,1.0091861,0.34219024,1.8690424,1.8251433,1.1563283,0.6438181,1.8762808,726.4603,768.23535,751.9502,726.1063,747.6134,744.2501,771.86414,1269.093,-0.99920654296875,0.03973388671875,0.00177001953125,0.560760498046875,-0.545806884765625,0.650482177734375,5.009648332260449,5.6613823522399445,3.5270724554752877,3.755588298404978,0.0,0.0,0.0,0.0,0.0,0.0,0.0,0.0,0.0,0.0,0.0,0.0,61.169212,1,1.0,1.0,1.0,1.0,52.01
2026-01-16 05:44:17.560,,,,,,,,,,,,,,,,,,,,,,,,,,,,,,,,,,,,,,,,,,,,,,,,,,,,,,,,,,/muse/elements/blink
2026-01-16 05:44:18.342,,,,,,,,,,,,,,,,,,,,,,,,,,,,,,,,,,,,,,,,,,,,,,,,,,,,,,,,,,/muse/elements/blink
2026-01-16 05:44:18.452,0.43991154,-0.047818992,0.036293175,0.41154212,0.74327534,-0.039299067,-0.09598398,0.9067035,1.3696842,0.53294003,0.008707544,1.401873,1.7804825,1.0091861,0.34219024,1.8690424,1.8251433,1.1563283,0.6438181,1.8762808,725.6638,780.0952,761.5974,722.6546,777.61707,789.12286,766.7308,1184.1268,-1.00054931640625,0.03875732421875,0.0064697265625,0.291595458984375,0.067291259765625,-0.13458251953125,4.977360703812317,5.651982929213457,3.4967989891042603,3.7404515652194643,0.0,0.0,0.0,0.0,0.0,0.0,0.0,0.0,0.0,0.0,0.0,0.0,60.550182,1,1.0,1.0,1.0,1.0,52.01
2026-01-16 05:44:18.623,,,,,,,,,,,,,,,,,,,,,,,,,,,,,,,,,,,,,,,,,,,,,,,,,,,,,,,,,,/muse/elements/blink
2026-01-16 05:44:18.939,,,,,,,,,,,,,,,,,,,,,,,,,,,,,,,,,,,,,,,,,,,,,,,,,,,,,,,,,,/muse/elements/jaw_clench
2026-01-16 05:44:19.466,0.43991154,-0.047818992,0.036293175,0.41154212,0.74327534,-0.039299067,-0.09598398,0.9067035,1.3696842,0.53294003,0.008707544,1.401873,1.7804825,1.0091861,0.34219024,1.8690424,1.8251433,1.1563283,0.6438181,1.8762808,737.1696,677.1623,697.34174,733.8949,489.08624,461.38376,514.7531,532.9854,-1.002685546875,0.03948974609375,0.00634765625,-0.0,-0.246734619140625,-0.052337646484375,4.968846291395465,5.645421643659252,3.481235009417543,3.730167131583339,0.0,0.0,0.0,0.0,0.0,0.0,0.0,0.0,0.0,0.0,0.0,0.0,61.478695,1,2.0,1.0,1.0,2.0,52.01
2026-01-16 05:44:19.671,,,,,,,,,,,,,,,,,,,,,,,,,,,,,,,,,,,,,,,,,,,,,,,,,,,,,,,,,,/muse/elements/blink
2026-01-16 05:44:20.342,,,,,,,,,,,,,,,,,,,,,,,,,,,,,,,,,,,,,,,,,,,,,,,,,,,,,,,,,,/muse/elements/blink
2026-01-16 05:44:20.469,0.43991154,-0.047818992,0.036293175,0.25778913,0.74327534,-0.039299067,-0.09598398,0.83285916,1.3696842,0.53294003,0.008707544,1.3801438,1.7804825,1.0091861,0.34219024,1.6558483,1.8251433,1.1563283,0.6438181,1.7363441,715.30853,663.53235,689.5532,716.1936,760.53534,747.7904,757.8801,1237.4077,-1.00262451171875,0.03521728515625,0.00750732421875,0.097198486328125,-0.43365478515625,-0.037384033203125,4.970433206971366,5.647496840950814,3.4804110340223637,3.7286412512218963,0.0,0.0,0.0,0.0,0.0,0.0,0.0,0.0,0.0,0.0,0.0,0.0,62.78067,1,1.0,1.0,1.0,1.0,52.01
2026-01-16 05:44:20.752,,,,,,,,,,,,,,,,,,,,,,,,,,,,,,,,,,,,,,,,,,,,,,,,,,,,,,,,,,/muse/elements/blink
2026-01-16 05:44:21.470,0.43991154,-0.047818992,0.036293175,0.17416058,0.74327534,-0.039299067,-0.09598398,0.6497171,1.3696842,0.53294003,0.008707544,1.3726249,1.7804825,1.0091861,0.34219024,1.5373442,1.8251433,1.1563283,0.6438181,1.6085238,756.0215,770.3595,756.64105,757.7916,733.2753,738.85126,720.53046,1122.4379,-1.00091552734375,0.03302001953125,0.0086669921875,0.19439697265625,-0.545806884765625,-0.321502685546875,4.980320911713516,5.656560570297785,3.493533605130773,3.738406885535131,0.0,0.0,0.0,0.0,0.0,0.0,0.0,0.0,0.0,0.0,0.0,0.0,62.76109,1,1.0,1.0,1.0,1.0,52.01
2026-01-16 05:44:21.853,,,,,,,,,,,,,,,,,,,,,,,,,,,,,,,,,,,,,,,,,,,,,,,,,,,,,,,,,,/muse/elements/jaw_clench
2026-01-16 05:44:21.956,,,,,,,,,,,,,,,,,,,,,,,,,,,,,,,,,,,,,,,,,,,,,,,,,,,,,,,,,,/muse/elements/blink
2026-01-16 05:44:22.478,0.43991154,-0.047818992,0.036293175,0.17416058,0.74327534,-0.039299067,-0.09598398,0.6497171,1.3696842,0.53294003,0.008707544,1.3726249,1.7804825,1.0091861,0.34219024,1.5373442,1.8251433,1.1563283,0.6438181,1.6085238,751.1536,758.41113,755.1364,746.72833,669.6393,668.9312,647.9552,1163.1509,-0.99945068359375,0.03594970703125,0.01031494140625,0.157012939453125,-0.351409912109375,-0.216827392578125,4.98154161600267,5.658544214767661,3.490451326800658,3.735812888920678,0.0,0.0,0.0,0.0,0.0,0.0,0.0,0.0,0.0,0.0,0.0,0.0,61.199444,1,1.0,1.0,1.0,1.0,51.99
2026-01-16 05:44:22.831,,,,,,,,,,,,,,,,,,,,,,,,,,,,,,,,,,,,,,,,,,,,,,,,,,,,,,,,,,/muse/elements/jaw_clench
2026-01-16 05:44:22.957,,,,,,,,,,,,,,,,,,,,,,,,,,,,,,,,,,,,,,,,,,,,,,,,,,,,,,,,,,/muse/elements/blink
2026-01-16 05:44:23.459,,,,,,,,,,,,,,,,,,,,,,,,,,,,,,,,,,,,,,,,,,,,,,,,,,,,,,,,,,/muse/elements/blink
2026-01-16 05:44:23.493,0.43991154,-0.047818992,0.036293175,0.17416058,0.74327534,-0.039299067,-0.09598398,0.6497171,1.3696842,0.53294003,0.008707544,1.3726249,1.7804825,1.0091861,0.34219024,1.5373442,1.8251433,1.1563283,0.6438181,1.6085238,723.0971,728.23047,730.0891,722.5661,751.5077,752.0387,768.9434,1248.7365,-1.0010986328125,0.03155517578125,0.0079345703125,0.097198486328125,-0.261688232421875,-0.10467529296875,4.980442982142431,5.657262475264049,3.485904203323558,3.7335240683785136,0.0,0.0,0.0,0.0,0.0,0.0,0.0,0.0,0.0,0.0,0.0,0.0,59.83882,1,2.0,1.0,1.0,2.0,51.99
2026-01-16 05:44:23.694,,,,,,,,,,,,,,,,,,,,,,,,,,,,,,,,,,,,,,,,,,,,,,,,,,,,,,,,,,/muse/elements/blink
2026-01-16 05:44:24.501,0.43991154,-0.047818992,0.036293175,0.17416058,0.74327534,-0.039299067,-0.09598398,0.6497171,1.3696842,0.53294003,0.008707544,1.3726249,1.7804825,1.0091861,0.34219024,1.5373442,1.8251433,1.1563283,0.6438181,1.6085238,730.3546,754.42834,748.3214,733.8064,747.8789,750.6226,765.40314,1273.9608,-1.005126953125,0.03131103515625,0.00726318359375,0.11962890625,-0.418701171875,-0.0,4.986821162053262,5.664098419283313,3.4957613904584792,3.7421605512242806,0.0,0.0,0.0,0.0,0.0,0.0,0.0,0.0,0.0,0.0,0.0,0.0,60.123238,1,2.0,1.0,1.0,2.0,51.99
2026-01-16 05:44:24.690,,,,,,,,,,,,,,,,,,,,,,,,,,,,,,,,,,,,,,,,,,,,,,,,,,,,,,,,,,/muse/elements/jaw_clench
2026-01-16 05:44:24.820,,,,,,,,,,,,,,,,,,,,,,,,,,,,,,,,,,,,,,,,,,,,,,,,,,,,,,,,,,/muse/elements/blink
2026-01-16 05:44:25.075,,,,,,,,,,,,,,,,,,,,,,,,,,,,,,,,,,,,,,,,,,,,,,,,,,,,,,,,,,/muse/elements/blink
2026-01-16 05:44:25.505,0.43991154,-0.047818992,0.036293175,0.17416058,0.74327534,-0.039299067,-0.09598398,0.6497171,1.3696842,0.53294003,0.008707544,1.3726249,1.7804825,1.0091861,0.34219024,1.5373442,1.8251433,1.1563283,0.6438181,1.6085238,733.9834,776.6435,760.4468,738.58575,779.47565,784.6091,798.6816,1342.8187,-1.0010986328125,0.02960205078125,0.0091552734375,0.097198486328125,-0.37384033203125,-0.0299072265625,4.9847459647617,5.662603056529099,3.4877657773645185,3.7343785613809217,0.0,0.0,0.0,0.0,0.0,0.0,0.0,0.0,0.0,0.0,0.0,0.0,61.094204,1,2.0,1.0,1.0,2.0,51.99
2026-01-16 05:44:26.343,,,,,,,,,,,,,,,,,,,,,,,,,,,,,,,,,,,,,,,,,,,,,,,,,,,,,,,,,,/muse/elements/blink
2026-01-16 05:44:26.517,0.43991154,-0.047818992,0.036293175,0.2011198,0.74327534,-0.039299067,-0.09598398,0.89230764,1.3696842,0.53294003,0.008707544,1.4777262,1.7804825,1.0091861,0.34219024,1.8779553,1.8251433,1.1563283,0.6438181,1.9119692,720.88446,670.1703,693.8015,726.3718,511.38986,502.18518,545.1108,527.4095,-1.000732421875,0.0372314453125,0.01324462890625,0.037384033203125,-0.5682373046875,-0.007476806640625,4.983464225258088,5.65616384140381,3.486148344181389,3.729587297045991,0.0,0.0,0.0,0.0,0.0,0.0,0.0,0.0,0.0,0.0,0.0,0.0,61.170647,1,1.0,1.0,1.0,1.0,51.99
2026-01-16 05:44:26.559,,,,,,,,,,,,,,,,,,,,,,,,,,,,,,,,,,,,,,,,,,,,,,,,,,,,,,,,,,/muse/elements/jaw_clench
2026-01-16 05:44:26.686,,,,,,,,,,,,,,,,,,,,,,,,,,,,,,,,,,,,,,,,,,,,,,,,,,,,,,,,,,/muse/elements/blink
2026-01-16 05:44:26.821,,,,,,,,,,,,,,,,,,,,,,,,,,,,,,,,,,,,,,,,,,,,,,,,,,,,,,,,,,/muse/elements/blink
2026-01-16 05:44:26.821,,,,,,,,,,,,,,,,,,,,,,,,,,,,,,,,,,,,,,,,,,,,,,,,,,,,,,,,,,/muse/elements/jaw_clench
2026-01-16 05:44:27.458,,,,,,,,,,,,,,,,,,,,,,,,,,,,,,,,,,,,,,,,,,,,,,,,,,,,,,,,,,/muse/elements/jaw_clench
2026-01-16 05:44:27.534,0.43991154,-0.34881684,0.036293175,0.008358505,0.74327534,0.24276137,-0.09598398,0.8002194,1.3696842,0.71351755,0.008707544,1.4242029,1.7804825,1.2442799,0.34219024,1.7970454,1.8251433,1.2660267,0.6438181,1.8330753,699.64294,659.461,686.6325,698.5809,735.488,738.4087,754.42834,1248.3824,-1.002197265625,0.032470703125,0.01055908203125,0.127105712890625,-0.276641845703125,0.037384033203125,4.983281119614715,5.655278830794173,3.4843172877476576,3.7264439835014187,0.0,0.0,0.0,0.0,0.0,0.0,0.0,0.0,0.0,0.0,0.0,0.0,61.257874,1,1.0,1.0,1.0,1.0,51.98
2026-01-16 05:44:27.968,,,,,,,,,,,,,,,,,,,,,,,,,,,,,,,,,,,,,,,,,,,,,,,,,,,,,,,,,,/muse/elements/blink
2026-01-16 05:44:28.548,0.43991154,-0.35635203,0.036293175,0.008358505,0.74327534,-0.31550238,-0.09598398,0.8002194,1.3696842,0.5907102,0.008707544,1.4242029,1.7804825,1.0818422,0.34219024,1.7970454,1.8251433,1.1803302,0.6438181,1.8330753,724.86725,687.8716,702.2981,719.7339,733.36383,732.21326,726.4603,1162.5312,-1.00042724609375,0.0367431640625,0.007080078125,0.127105712890625,-0.291595458984375,0.04486083984375,4.978062608778581,5.652227070071287,3.4749178647211694,3.719394416231552,0.0,0.0,0.0,0.0,0.0,0.0,0.0,0.0,0.0,0.0,0.0,0.0,62.757786,1,1.0,1.0,1.0,1.0,51.98
2026-01-16 05:44:28.937,,,,,,,,,,,,,,,,,,,,,,,,,,,,,,,,,,,,,,,,,,,,,,,,,,,,,,,,,,/muse/elements/blink
2026-01-16 05:44:29.560,0.43991154,-0.35635203,0.036293175,0.008358505,0.74327534,-0.31550238,-0.09598398,0.8002194,1.3696842,0.5907102,0.008707544,1.4242029,1.7804825,1.0818422,0.34219024,1.7970454,1.8251433,1.1803302,0.6438181,1.8330753,733.1868,699.4659,710.3522,728.67303,748.1444,746.28577,765.6687,1254.3124,-1.00018310546875,0.03558349609375,0.0057373046875,0.157012939453125,-0.291595458984375,-0.0299072265625,4.981358510359297,5.653417256753213,3.476077533795866,3.7204930500917914,0.0,0.0,0.0,0.0,0.0,0.0,0.0,0.0,0.0,0.0,0.0,0.0,64.10918,1,2.0,1.0,1.0,2.0,51.98
2026-01-16 05:44:29.679,,,,,,,,,,,,,,,,,,,,,,,,,,,,,,,,,,,,,,,,,,,,,,,,,,,,,,,,,,/muse/elements/blink
2026-01-16 05:44:30.571,0.43991154,-0.35635203,0.036293175,0.008358505,0.74327534,-0.31550238,-0.09598398,0.8002194,1.3696842,0.5907102,0.008707544,1.4242029,1.7804825,1.0818422,0.34219024,1.7970454,1.8251433,1.1803302,0.6438181,1.8330753,743.45355,770.1825,753.3663,742.48,778.0596,779.6527,755.933,1191.3844,-1.00250244140625,0.03570556640625,0.0047607421875,0.186920166015625,-0.276641845703125,0.201873779296875,4.989964475597835,5.659703883842358,3.4835848651741648,3.7234837756002195,0.0,0.0,0.0,0.0,0.0,0.0,0.0,0.0,0.0,0.0,0.0,0.0,63.22008,1,2.0,1.0,1.0,2.0,51.98
2026-01-16 05:44:31.060,,,,,,,,,,,,,,,,,,,,,,,,,,,,,,,,,,,,,,,,,,,,,,,,,,,,,,,,,,/muse/elements/blink
2026-01-16 05:44:31.306,,,,,,,,,,,,,,,,,,,,,,,,,,,,,,,,,,,,,,,,,,,,,,,,,,,,,,,,,,/muse/elements/blink
2026-01-16 05:44:31.579,0.43991154,-0.35635203,0.036293175,0.008358505,0.74327534,-0.31550238,-0.09598398,0.8002194,1.3696842,0.5907102,0.008707544,1.4242029,1.7804825,1.0818422,0.34219024,1.7970454,1.8251433,1.1803302,0.6438181,1.8330753,707.7855,688.84515,713.0959,708.5821,747.34784,758.41113,746.02026,1168.9037,-0.99920654296875,0.0423583984375,0.00177001953125,0.10467529296875,-0.43365478515625,-0.082244873046875,4.9876756550556705,5.657750756979711,3.4806246572729655,3.7193028634098657,0.0,0.0,0.0,0.0,0.0,0.0,0.0,0.0,0.0,0.0,0.0,0.0,61.592205,1,2.0,4.0,4.0,2.0,51.98
2026-01-16 05:44:31.608,,,,,,,,,,,,,,,,,,,,,,,,,,,,,,,,,,,,,,,,,,,,,,,,,,,,,,,,,,/muse/elements/jaw_clench
2026-01-16 05:44:31.917,,,,,,,,,,,,,,,,,,,,,,,,,,,,,,,,,,,,,,,,,,,,,,,,,,,,,,,,,,/muse/elements/blink
2026-01-16 05:44:32.228,,,,,,,,,,,,,,,,,,,,,,,,,,,,,,,,,,,,,,,,,,,,,,,,,,,,,,,,,,/muse/elements/blink
2026-01-16 05:44:32.441,,,,,,,,,,,,,,,,,,,,,,,,,,,,,,,,,,,,,,,,,,,,,,,,,,,,,,,,,,/muse/elements/blink
2026-01-16 05:44:32.589,0.43991154,-0.35635203,0.036293175,0.008358505,0.74327534,-0.31550238,-0.09598398,0.8002194,1.3696842,0.5907102,0.008707544,1.4242029,1.7804825,1.0818422,0.34219024,1.7970454,1.8251433,1.1803302,0.6438181,1.8330753,747.5249,748.3214,743.6306,747.34784,758.6767,754.42834,762.0399,1232.8053,-1.0003662109375,0.03387451171875,0.008056640625,0.07476806640625,-0.538330078125,-0.25421142578125,4.990269651670124,5.658544214767661,3.481204491810314,3.719089240159264,0.0,0.0,0.0,0.0,0.0,0.0,0.0,0.0,0.0,0.0,0.0,0.0,61.79232,1,2.0,1.0,1.0,2.0,51.98
2026-01-16 05:44:33.604,0.054232102,-0.35635203,0.036293175,0.008358505,0.25822657,-0.31550238,-0.09598398,0.8002194,1.0783478,0.5907102,0.008707544,1.4242029,1.4013398,1.0818422,0.34219024,1.7970454,1.4174875,1.1803302,0.6438181,1.8330753,716.54767,752.1272,742.92255,716.8132,654.41614,650.16785,663.4438,806.2046,-1.0009765625,0.0313720703125,0.007568359375,-0.0299072265625,-0.59814453125,-0.157012939453125,4.992222778532771,5.661443387454402,3.4840731468898265,3.7206456381279356,0.0,0.0,0.0,0.0,0.0,0.0,0.0,0.0,0.0,0.0,0.0,0.0,62.927967,1,1.0,1.0,1.0,1.0,51.94
2026-01-16 05:44:34.171,,,,,,,,,,,,,,,,,,,,,,,,,,,,,,,,,,,,,,,,,,,,,,,,,,,,,,,,,,/muse/elements/blink
2026-01-16 05:44:34.621,0.0059397616,-0.35635203,-0.44042167,0.008358505,0.08228116,-0.31550238,-0.5282969,0.8002194,0.35253593,0.5907102,-0.07023266,1.4242029,0.99374217,1.0818422,0.55028015,1.7970454,1.0964946,1.1803302,0.7530192,1.8330753,727.1684,766.1112,750.18005,721.504,723.9822,724.77875,712.8304,990.47485,-0.99981689453125,0.0413818359375,0.004150390625,0.28411865234375,-0.306549072265625,0.171966552734375,5.00586414896407,5.671147986553179,3.4953036263500463,3.728702286436354,0.0,0.0,0.0,0.0,0.0,0.0,0.0,0.0,0.0,0.0,0.0,0.0,62.534576,1,1.0,1.0,1.0,1.0,51.94
2026-01-16 05:44:34.683,,,,,,,,,,,,,,,,,,,,,,,,,,,,,,,,,,,,,,,,,,,,,,,,,,,,,,,,,,/muse/elements/jaw_clench
2026-01-16 05:44:35.632,0.0059397616,-0.35635203,-0.44042167,0.008358505,0.08228116,-0.31550238,-0.5282969,0.8002194,0.35253593,0.5907102,-0.07023266,1.4242029,0.99374217,1.0818422,0.55028015,1.7970454,1.0964946,1.1803302,0.7530192,1.8330753,734.51447,686.18994,713.2729,732.39026,736.46155,750.9766,763.89856,1244.9307,-1.0028076171875,0.0352783203125,3.662109375E-4,0.01495361328125,-0.2093505859375,-0.097198486328125,5.015446677633932,5.6809441384736425,3.5081820566006248,3.7366368643158574,0.0,0.0,0.0,0.0,0.0,0.0,0.0,0.0,0.0,0.0,0.0,0.0,63.3088,1,1.0,1.0,1.0,1.0,51.94
2026-01-16 05:44:35.935,,,,,,,,,,,,,,,,,,,,,,,,,,,,,,,,,,,,,,,,,,,,,,,,,,,,,,,,,,/muse/elements/jaw_clench
2026-01-16 05:44:36.494,,,,,,,,,,,,,,,,,,,,,,,,,,,,,,,,,,,,,,,,,,,,,,,,,,,,,,,,,,/muse/elements/blink
2026-01-16 05:44:36.643,0.0059397616,-0.35635203,-0.64184695,-0.065299846,0.08228116,-0.31550238,-0.19478236,0.45124176,0.35253593,0.5907102,0.40713084,0.6792186,0.99374217,1.0818422,0.6796152,1.0574539,1.0964946,1.1803302,0.9772174,1.0878147,711.7683,676.8968,707.07745,715.043,753.63184,740.9754,753.54333,1234.9294,-1.00250244140625,0.03466796875,0.00897216796875,0.186920166015625,-0.2093505859375,0.291595458984375,5.016881005173688,5.681859666690508,3.506351000166893,3.734348043773693,0.0,0.0,0.0,0.0,0.0,0.0,0.0,0.0,0.0,0.0,0.0,0.0,64.53232,1,1.0,1.0,1.0,1.0,51.94
2026-01-16 05:44:36.930,,,,,,,,,,,,,,,,,,,,,,,,,,,,,,,,,,,,,,,,,,,,,,,,,,,,,,,,,,/muse/elements/blink
2026-01-16 05:44:37.645,0.0059397616,-0.35635203,-0.38674653,-0.065299846,0.08228116,-0.31550238,0.0374893,0.45124176,0.35253593,0.5907102,0.49574775,0.6792186,0.99374217,1.0818422,0.78428066,1.0574539,1.0964946,1.1803302,1.0701861,1.0878147,718.9373,696.98773,711.5913,713.89246,502.2737,488.3782,531.3038,501.1231,-0.996337890625,0.03662109375,4.8828125E-4,0.545806884765625,-0.456085205078125,0.515899658203125,4.9964952435448104,5.677343060820638,3.4873385308633145,3.727176406074911,0.0,0.0,0.0,0.0,0.0,0.0,0.0,0.0,0.0,0.0,0.0,0.0,64.65707,1,1.0,1.0,1.0,1.0,51.94
2026-01-16 05:44:37.799,,,,,,,,,,,,,,,,,,,,,,,,,,,,,,,,,,,,,,,,,,,,,,,,,,,,,,,,,,/muse/elements/blink
2026-01-16 05:44:37.799,,,,,,,,,,,,,,,,,,,,,,,,,,,,,,,,,,,,,,,,,,,,,,,,,,,,,,,,,,/muse/elements/jaw_clench
2026-01-16 05:44:38.078,,,,,,,,,,,,,,,,,,,,,,,,,,,,,,,,,,,,,,,,,,,,,,,,,,,,,,,,,,/muse/elements/blink
2026-01-16 05:44:38.657,0.0059397616,-0.27480966,-0.39258865,-0.065299846,0.08228116,-0.018988332,-0.03742327,0.45124176,0.35253593,0.727684,0.3861905,0.6792186,0.99374217,0.773498,0.6247796,1.0574539,1.0964946,0.9367902,0.87595725,1.0878147,708.7591,708.7591,721.5925,705.7499,736.28455,747.08234,739.5593,1163.7704,-1.00439453125,0.03765869140625,0.00543212890625,0.22430419921875,-0.3887939453125,-0.037384033203125,4.987462031805069,5.672918007772453,3.474521135827194,3.718631476050831,0.0,0.0,0.0,0.0,0.0,0.0,0.0,0.0,0.0,0.0,0.0,0.0,64.340195,1,1.0,1.0,1.0,1.0,51.94
2026-01-16 05:44:38.932,,,,,,,,,,,,,,,,,,,,,,,,,,,,,,,,,,,,,,,,,,,,,,,,,,,,,,,,,,/muse/elements/jaw_clench
2026-01-16 05:44:39.556,,,,,,,,,,,,,,,,,,,,,,,,,,,,,,,,,,,,,,,,,,,,,,,,,,,,,,,,,,/muse/elements/jaw_clench
2026-01-16 05:44:39.662,0.0059397616,-0.09762743,-0.359287,-0.065299846,0.08228116,0.1827401,-0.3053666,0.45124176,0.35253593,0.672871,-0.11185911,0.6792186,0.99374217,1.085699,0.37291908,1.0574539,1.0964946,1.102241,0.3741274,1.0878147,817.88745,830.0128,826.6496,819.4805,585.20416,568.8305,574.84894,1012.69,-1.00274658203125,0.037353515625,0.00970458984375,0.07476806640625,-0.40374755859375,-0.10467529296875,4.990605345349641,5.670354528765229,3.4710421286031043,3.712985718713492,0.0,0.0,0.0,0.0,0.0,0.0,0.0,0.0,0.0,0.0,0.0,0.0,65.321075,1,2.0,1.0,1.0,2.0,51.93
2026-01-16 05:44:40.174,,,,,,,,,,,,,,,,,,,,,,,,,,,,,,,,,,,,,,,,,,,,,,,,,,,,,,,,,,/muse/elements/blink
2026-01-16 05:44:40.673,0.0059397616,-0.09762743,-0.359287,-0.065299846,0.08228116,0.1827401,-0.3053666,0.45124176,0.35253593,0.672871,-0.11185911,0.6792186,0.99374217,1.085699,0.37291908,1.0574539,1.0964946,1.102241,0.3741274,1.0878147,745.93176,759.65027,755.2249,741.6835,583.434,574.4064,573.69836,897.36615,-0.99737548828125,0.0321044921875,0.009521484375,0.246734619140625,-0.261688232421875,-0.07476806640625,4.992558472212288,5.6737114655604035,3.4742159597549054,3.7155797153279453,0.0,0.0,0.0,0.0,0.0,0.0,0.0,0.0,0.0,0.0,0.0,0.0,65.89708,1,2.0,1.0,4.0,2.0,51.93
2026-01-16 05:44:40.793,,,,,,,,,,,,,,,,,,,,,,,,,,,,,,,,,,,,,,,,,,,,,,,,,,,,,,,,,,/muse/elements/blink
2026-01-16 05:44:41.308,,,,,,,,,,,,,,,,,,,,,,,,,,,,,,,,,,,,,,,,,,,,,,,,,,,,,,,,,,/muse/elements/blink
2026-01-16 05:44:41.671,,,,,,,,,,,,,,,,,,,,,,,,,,,,,,,,,,,,,,,,,,,,,,,,,,,,,,,,,,/muse/elements/jaw_clench
2026-01-16 05:44:41.685,0.0059397616,-0.09762743,-0.359287,0.37344742,0.08228116,0.1827401,-0.3053666,0.8228529,0.35253593,0.672871,-0.11185911,1.328051,0.99374217,1.085699,0.37291908,1.8509964,1.0964946,1.102241,0.3741274,1.8727818,732.47876,703.71423,706.3694,730.6202,765.49164,764.87213,784.255,1379.1064,-0.99737548828125,0.03131103515625,0.00555419921875,0.2392578125,-0.336456298828125,-0.0,5.0029954938845576,5.681493455403762,3.481235009417543,3.7203709796628757,0.0,0.0,0.0,0.0,0.0,0.0,0.0,0.0,0.0,0.0,0.0,0.0,64.720314,1,1.0,1.0,1.0,1.0,51.93
2026-01-16 05:44:41.771,,,,,,,,,,,,,,,,,,,,,,,,,,,,,,,,,,,,,,,,,,,,,,,,,,,,,,,,,,/muse/elements/blink
2026-01-16 05:44:42.048,,,,,,,,,,,,,,,,,,,,,,,,,,,,,,,,,,,,,,,,,,,,,,,,,,,,,,,,,,/muse/elements/blink
2026-01-16 05:44:42.438,,,,,,,,,,,,,,,,,,,,,,,,,,,,,,,,,,,,,,,,,,,,,,,,,,,,,,,,,,/muse/elements/blink
2026-01-16 05:44:42.697,0.19055758,-0.09762743,0.06178317,0.45993832,0.85297763,0.1827401,0.39821857,0.846273,1.3662654,0.672871,1.0403311,1.37712,1.7999026,1.085699,1.4639592,1.8061451,1.8986644,1.102241,1.4843054,1.8996247,739.5593,705.1303,715.5741,732.9213,761.7744,757.34906,754.6054,1225.8134,-1.00128173828125,0.03985595703125,0.00604248046875,0.261688232421875,-0.366363525390625,0.097198486328125,5.003575328421906,5.680272751114608,3.4798617170922443,3.7189061345158905,0.0,0.0,0.0,0.0,0.0,0.0,0.0,0.0,0.0,0.0,0.0,0.0,63.650223,1,1.0,1.0,4.0,1.0,51.93
2026-01-16 05:44:42.922,,,,,,,,,,,,,,,,,,,,,,,,,,,,,,,,,,,,,,,,,,,,,,,,,,,,,,,,,,/muse/elements/blink
2026-01-16 05:44:42.922,,,,,,,,,,,,,,,,,,,,,,,,,,,,,,,,,,,,,,,,,,,,,,,,,,,,,,,,,,/muse/elements/jaw_clench
2026-01-16 05:44:43.189,,,,,,,,,,,,,,,,,,,,,,,,,,,,,,,,,,,,,,,,,,,,,,,,,,,,,,,,,,/muse/elements/jaw_clench
2026-01-16 05:44:43.502,,,,,,,,,,,,,,,,,,,,,,,,,,,,,,,,,,,,,,,,,,,,,,,,,,,,,,,,,,/muse/elements/blink
2026-01-16 05:44:43.706,-0.043758098,-0.09762743,0.09051671,0.30665258,0.8044518,0.1827401,0.42060128,0.8483951,1.3457772,0.672871,1.0347022,1.3442879,1.7240325,1.085699,1.4521323,1.7366735,1.9026468,1.102241,1.4987208,1.9277604,707.874,731.3282,728.4075,698.2268,753.72034,753.63184,767.3503,1263.8711,-1.00079345703125,0.03289794921875,0.0093994140625,0.082244873046875,-0.35888671875,-0.22430419921875,5.009373673795389,5.6809441384736425,3.4828219249934436,3.71866199365806,0.0,0.0,0.0,0.0,0.0,0.0,0.0,0.0,0.0,0.0,0.0,0.0,64.70612,1,1.0,1.0,1.0,1.0,51.93
2026-01-16 05:44:44.045,,,,,,,,,,,,,,,,,,,,,,,,,,,,,,,,,,,,,,,,,,,,,,,,,,,,,,,,,,/muse/elements/blink
2026-01-16 05:44:44.713,-0.043758098,-0.09762743,0.09051671,0.30665258,0.8044518,0.1827401,0.42060128,0.8483951,1.3457772,0.672871,1.0347022,1.3442879,1.7240325,1.085699,1.4521323,1.7366735,1.9026468,1.102241,1.4987208,1.9277604,748.4984,745.0467,742.56854,743.5421,777.44,765.40314,780.2722,1337.6854,-0.9993896484375,0.03759765625,0.0072021484375,0.11962890625,-0.560760498046875,0.127105712890625,5.0172777340676635,5.685277638700141,3.4928927353789665,3.7249486207472047,0.0,0.0,0.0,0.0,0.0,0.0,0.0,0.0,0.0,0.0,0.0,0.0,65.63746,1,1.0,1.0,1.0,1.0,51.89
2026-01-16 05:44:44.906,,,,,,,,,,,,,,,,,,,,,,,,,,,,,,,,,,,,,,,,,,,,,,,,,,,,,,,,,,/muse/elements/blink
2026-01-16 05:44:45.663,,,,,,,,,,,,,,,,,,,,,,,,,,,,,,,,,,,,,,,,,,,,,,,,,,,,,,,,,,/muse/elements/jaw_clench
2026-01-16 05:44:45.725,-0.043758098,-0.09762743,0.09051671,0.30665258,0.8044518,0.1827401,0.42060128,0.8483951,1.3457772,0.672871,1.0347022,1.3442879,1.7240325,1.085699,1.4521323,1.7366735,1.9026468,1.102241,1.4987208,1.9277604,738.58575,751.8617,751.3306,735.488,668.5772,657.6909,633.4401,1125.2701,-0.9990234375,0.0343017578125,0.00738525390625,-0.07476806640625,-0.411224365234375,-0.22430419921875,5.020726223684524,5.690038385427843,3.494113439668121,3.7271458884676822,0.0,0.0,0.0,0.0,0.0,0.0,0.0,0.0,0.0,0.0,0.0,0.0,64.53836,1,2.0,1.0,1.0,2.0,51.89
2026-01-16 05:44:46.156,,,,,,,,,,,,,,,,,,,,,,,,,,,,,,,,,,,,,,,,,,,,,,,,,,,,,,,,,,/muse/elements/jaw_clench
2026-01-16 05:44:46.412,,,,,,,,,,,,,,,,,,,,,,,,,,,,,,,,,,,,,,,,,,,,,,,,,,,,,,,,,,/muse/elements/blink
2026-01-16 05:44:46.735,-0.024028407,-0.3486642,-0.32490793,0.0749864,0.38679633,0.034109708,-0.06060972,0.38687724,0.6378656,0.44196826,0.4766827,0.74073756,1.1387606,1.0680907,0.88388294,1.1590824,1.2306498,1.1633497,0.9392796,1.183546,739.11676,762.571,756.81805,741.8605,562.1925,565.7328,572.7248,884.5328,-0.99969482421875,0.03704833984375,0.010498046875,0.059814453125,-0.52337646484375,0.142059326171875,5.024235748515843,5.692846005292897,3.499911785041604,3.730869036549603,0.0,0.0,0.0,0.0,0.0,0.0,0.0,0.0,0.0,0.0,0.0,0.0,62.676987,1,1.0,1.0,1.0,1.0,51.89
2026-01-16 05:44:46.903,,,,,,,,,,,,,,,,,,,,,,,,,,,,,,,,,,,,,,,,,,,,,,,,,,,,,,,,,,/muse/elements/jaw_clench
2026-01-16 05:44:47.183,,,,,,,,,,,,,,,,,,,,,,,,,,,,,,,,,,,,,,,,,,,,,,,,,,,,,,,,,,/muse/elements/blink
2026-01-16 05:44:47.378,,,,,,,,,,,,,,,,,,,,,,,,,,,,,,,,,,,,,,,,,,,,,,,,,,,,,,,,,,/muse/elements/blink
2026-01-16 05:44:47.739,-0.22700548,-0.3486642,-0.29807505,0.12883231,0.30429155,0.034109708,-0.06892454,0.41075188,0.7984681,0.44196826,0.5863215,0.65218914,1.0102637,1.0680907,0.7293451,1.1068807,1.2308846,1.1633497,0.94212526,1.1500146,728.4075,756.11,749.0295,727.2569,522.0106,496.16675,528.9141,721.76953,-0.99749755859375,0.0347900390625,0.01019287109375,0.2093505859375,-0.4486083984375,0.19439697265625,5.027134921202585,5.6924187587916935,3.5024142288343705,3.7316014591230955,0.0,0.0,0.0,0.0,0.0,0.0,0.0,0.0,0.0,0.0,0.0,0.0,62.236412,1,1.0,1.0,1.0,1.0,51.89
2026-01-16 05:44:47.948,,,,,,,,,,,,,,,,,,,,,,,,,,,,,,,,,,,,,,,,,,,,,,,,,,,,,,,,,,/muse/elements/jaw_clench
2026-01-16 05:44:48.659,,,,,,,,,,,,,,,,,,,,,,,,,,,,,,,,,,,,,,,,,,,,,,,,,,,,,,,,,,/muse/elements/jaw_clench
2026-01-16 05:44:48.740,-0.029404722,-0.2528463,-0.22070806,0.12580392,0.33438754,-0.25145745,-0.05372377,0.36169228,0.868403,-0.12872954,0.55001545,0.7144739,0.88975596,0.66684026,0.6360553,1.0714322,1.1446105,0.71802306,0.8466414,1.1387285,720.4419,759.0307,743.8961,718.14075,487.84717,466.87115,514.8416,508.91168,-0.99951171875,0.03765869140625,0.00537109375,0.28411865234375,-0.321502685546875,-0.13458251953125,5.029789953031495,5.691869441861574,3.5037570035524404,3.7305638604773144,0.0,0.0,0.0,0.0,0.0,0.0,0.0,0.0,0.0,0.0,0.0,0.0,62.555496,1,1.0,1.0,1.0,1.0,51.89
2026-01-16 05:44:48.906,,,,,,,,,,,,,,,,,,,,,,,,,,,,,,,,,,,,,,,,,,,,,,,,,,,,,,,,,,/muse/elements/jaw_clench
2026-01-16 05:44:49.174,,,,,,,,,,,,,,,,,,,,,,,,,,,,,,,,,,,,,,,,,,,,,,,,,,,,,,,,,,/muse/elements/blink
2026-01-16 05:44:49.403,,,,,,,,,,,,,,,,,,,,,,,,,,,,,,,,,,,,,,,,,,,,,,,,,,,,,,,,,,/muse/elements/jaw_clench
2026-01-16 05:44:49.650,,,,,,,,,,,,,,,,,,,,,,,,,,,,,,,,,,,,,,,,,,,,,,,,,,,,,,,,,,/muse/elements/jaw_clench
2026-01-16 05:44:49.747,0.0536078,-0.43971828,-0.21220344,0.12580392,0.059625555,-0.4292032,-0.24618156,0.36169228,0.640343,-0.04822173,0.06805945,0.7144739,0.7304246,0.47586578,0.3198249,1.0714322,0.88565713,0.64269775,0.523902,1.1387285,715.13153,733.9834,728.05347,707.6085,758.0571,760.3583,767.79285,1269.978,-0.9989013671875,0.03863525390625,0.00445556640625,0.10467529296875,-0.321502685546875,-0.19439697265625,5.033177407433898,5.694585508904942,3.50723601077653,3.732242328874902,0.0,0.0,0.0,0.0,0.0,0.0,0.0,0.0,0.0,0.0,0.0,0.0,61.928196,1,1.0,1.0,1.0,1.0,51.88
2026-01-16 05:44:49.903,,,,,,,,,,,,,,,,,,,,,,,,,,,,,,,,,,,,,,,,,,,,,,,,,,,,,,,,,,/muse/elements/blink
2026-01-16 05:44:49.903,,,,,,,,,,,,,,,,,,,,,,,,,,,,,,,,,,,,,,,,,,,,,,,,,,,,,,,,,,/muse/elements/jaw_clench
2026-01-16 05:44:50.166,,,,,,,,,,,,,,,,,,,,,,,,,,,,,,,,,,,,,,,,,,,,,,,,,,,,,,,,,,/muse/elements/jaw_clench
2026-01-16 05:44:50.749,0.2191196,-0.5112354,-0.29314634,0.122670755,0.4356639,0.079186425,0.16088907,0.64798903,1.1023208,0.80816776,0.72875637,1.2498463,1.5144411,1.1680485,1.0122625,1.5907156,1.5277464,1.1833857,1.0031465,1.5937289,709.1131,716.1936,714.9545,709.55566,769.2974,761.7744,760.0043,1300.4242,-1.0023193359375,0.03997802734375,0.003173828125,0.186920166015625,-0.515899658203125,0.007476806640625,5.032567055289321,5.6931206637579574,3.506228929737978,3.7319066351953842,0.0,0.0,0.0,0.0,0.0,0.0,0.0,0.0,0.0,0.0,0.0,0.0,61.375286,1,1.0,1.0,1.0,1.0,51.88
2026-01-16 05:44:50.900,,,,,,,,,,,,,,,,,,,,,,,,,,,,,,,,,,,,,,,,,,,,,,,,,,,,,,,,,,/muse/elements/blink
2026-01-16 05:44:51.521,,,,,,,,,,,,,,,,,,,,,,,,,,,,,,,,,,,,,,,,,,,,,,,,,,,,,,,,,,/muse/elements/blink
2026-01-16 05:44:51.760,0.27548885,-0.42888716,-0.34265167,0.36602777,0.63676196,0.23090029,0.31214514,0.8161969,1.2514579,0.80816776,0.72875637,1.3458629,1.700393,1.3504213,1.2222189,1.72251,1.7373686,1.3224117,1.1540785,1.7831419,743.5421,742.92255,747.5249,747.6134,731.68225,729.29254,725.48676,1114.8263,-0.99969482421875,0.03594970703125,0.0106201171875,0.059814453125,-0.5084228515625,-0.261688232421875,5.032689125718236,5.693364804615788,3.504703049376535,3.729373673795389,0.0,0.0,0.0,0.0,0.0,0.0,0.0,0.0,0.0,0.0,0.0,0.0,62.11195,1,1.0,1.0,1.0,1.0,51.88
2026-01-16 05:44:52.163,,,,,,,,,,,,,,,,,,,,,,,,,,,,,,,,,,,,,,,,,,,,,,,,,,,,,,,,,,/muse/elements/jaw_clench
2026-01-16 05:44:52.251,,,,,,,,,,,,,,,,,,,,,,,,,,,,,,,,,,,,,,,,,,,,,,,,,,,,,,,,,,/muse/elements/blink
2026-01-16 05:44:52.677,,,,,,,,,,,,,,,,,,,,,,,,,,,,,,,,,,,,,,,,,,,,,,,,,,,,,,,,,,/muse/elements/blink
2026-01-16 05:44:52.677,,,,,,,,,,,,,,,,,,,,,,,,,,,,,,,,,,,,,,,,,,,,,,,,,,,,,,,,,,/muse/elements/jaw_clench
2026-01-16 05:44:52.770,0.39595267,-0.42888716,-0.34265167,0.3401741,0.71789706,0.23090029,0.31214514,0.9242856,1.2213634,0.80816776,0.72875637,1.3951513,1.7904116,1.3504213,1.2222189,1.7958254,1.841876,1.3224117,1.1540785,1.8497455,726.8144,706.72345,713.0074,732.47876,748.6755,749.472,770.53656,1288.8298,-1.001708984375,0.0394287109375,0.00555419921875,0.037384033203125,-0.216827392578125,0.11962890625,5.039402999308585,5.69733209355554,3.5137972963307345,3.7339818324869465,0.0,0.0,0.0,0.0,0.0,0.0,0.0,0.0,0.0,0.0,0.0,0.0,63.080036,1,1.0,4.0,4.0,1.0,51.88
2026-01-16 05:44:52.913,,,,,,,,,,,,,,,,,,,,,,,,,,,,,,,,,,,,,,,,,,,,,,,,,,,,,,,,,,/muse/elements/jaw_clench
2026-01-16 05:44:53.164,,,,,,,,,,,,,,,,,,,,,,,,,,,,,,,,,,,,,,,,,,,,,,,,,,,,,,,,,,/muse/elements/jaw_clench
2026-01-16 05:44:53.774,0.2264171,-0.42888716,-0.34265167,0.11126343,0.43027353,0.23090029,0.31214514,0.706942,1.0141742,0.80816776,0.72875637,1.2756981,1.4058429,1.3504213,1.2222189,1.4999627,1.4237989,1.3224117,1.1540785,1.5476394,735.311,695.2176,712.1223,741.949,777.97107,791.1585,758.23413,1291.3081,-1.0018310546875,0.036376953125,0.00469970703125,0.231781005859375,-0.2093505859375,-0.1495361328125,5.029515294566435,5.698613833059151,3.5071749755620725,3.7351109839544145,0.0,0.0,0.0,0.0,0.0,0.0,0.0,0.0,0.0,0.0,0.0,0.0,62.651905,1,1.0,1.0,1.0,1.0,51.88
2026-01-16 05:44:54.652,,,,,,,,,,,,,,,,,,,,,,,,,,,,,,,,,,,,,,,,,,,,,,,,,,,,,,,,,,/muse/elements/blink
2026-01-16 05:44:54.792,0.21025184,-0.42888716,-0.34265167,0.13788687,0.3250464,0.23090029,0.31214514,0.61366355,0.81101364,0.80816776,0.72875637,1.0441767,1.2905725,1.3504213,1.2222189,1.3313498,1.319434,1.3224117,1.1540785,1.4136404,749.91455,712.2108,720.88446,748.764,761.24335,760.0928,762.4824,1229.3536,-1.00164794921875,0.03656005859375,0.00592041015625,0.216827392578125,-0.426177978515625,-0.112152099609375,5.010258684405025,5.689611138926638,3.4867586963259662,3.7236363636363636,0.0,0.0,0.0,0.0,0.0,0.0,0.0,0.0,0.0,0.0,0.0,0.0,62.263546,1,1.0,1.0,1.0,1.0,51.86
2026-01-16 05:44:54.882,,,,,,,,,,,,,,,,,,,,,,,,,,,,,,,,,,,,,,,,,,,,,,,,,,,,,,,,,,/muse/elements/jaw_clench
2026-01-16 05:44:55.070,,,,,,,,,,,,,,,,,,,,,,,,,,,,,,,,,,,,,,,,,,,,,,,,,,,,,,,,,,/muse/elements/blink
2026-01-16 05:44:55.404,,,,,,,,,,,,,,,,,,,,,,,,,,,,,,,,,,,,,,,,,,,,,,,,,,,,,,,,,,/muse/elements/blink
2026-01-16 05:44:55.636,,,,,,,,,,,,,,,,,,,,,,,,,,,,,,,,,,,,,,,,,,,,,,,,,,,,,,,,,,/muse/elements/jaw_clench
2026-01-16 05:44:55.802,0.0522887,-0.42888716,-0.34265167,0.31119034,0.7388143,0.23090029,0.31214514,0.6904879,1.3193107,0.80816776,0.72875637,1.0082575,1.7897631,1.3504213,1.2222189,1.3580937,1.8287592,1.3224117,1.1540785,1.491666,748.941,784.6976,773.0147,749.3835,757.34906,758.1456,758.32263,1110.8435,-1.001708984375,0.04052734375,0.005859375,0.291595458984375,-0.456085205078125,0.246734619140625,5.003453257992991,5.681401902582076,3.4756808049018906,3.7116734616026514,0.0,0.0,0.0,0.0,0.0,0.0,0.0,0.0,0.0,0.0,0.0,0.0,63.244854,1,1.0,1.0,1.0,1.0,51.86
2026-01-16 05:44:55.886,,,,,,,,,,,,,,,,,,,,,,,,,,,,,,,,,,,,,,,,,,,,,,,,,,,,,,,,,,/muse/elements/jaw_clench
2026-01-16 05:44:56.265,,,,,,,,,,,,,,,,,,,,,,,,,,,,,,,,,,,,,,,,,,,,,,,,,,,,,,,,,,/muse/elements/blink
2026-01-16 05:44:56.816,0.0042260718,-0.43235132,-0.34265167,0.31119034,0.617063,0.082520805,0.31214514,0.6904879,1.3238341,0.87246287,0.72875637,1.0082575,1.6792047,1.2447866,1.2222189,1.3580937,1.6993685,1.2620988,1.1540785,1.491666,720.88446,753.89734,746.02026,724.2477,773.1917,779.7412,802.57587,1421.501,-1.002197265625,0.03692626953125,0.0028076171875,0.261688232421875,-0.28411865234375,-0.037384033203125,5.011174212621891,5.689794244570011,3.4836459003886224,3.71945545144601,0.0,0.0,0.0,0.0,0.0,0.0,0.0,0.0,0.0,0.0,0.0,0.0,63.552372,1,1.0,1.0,1.0,1.0,51.86
2026-01-16 05:44:57.777,,,,,,,,,,,,,,,,,,,,,,,,,,,,,,,,,,,,,,,,,,,,,,,,,,,,,,,,,,/muse/elements/jaw_clench
2026-01-16 05:44:57.831,-0.03469847,-0.43235132,-0.34265167,0.31119034,0.45893818,0.082520805,0.31214514,0.6904879,1.2400435,0.87246287,0.72875637,1.0082575,1.5816481,1.2447866,1.2222189,1.3580937,1.53853,1.2620988,1.1540785,1.491666,716.63617,734.51447,730.7087,716.9902,804.7,807.7977,822.31274,1448.4069,-1.00164794921875,0.03924560546875,0.002197265625,0.25421142578125,-0.5084228515625,-0.052337646484375,5.013005269055623,5.691106501680853,3.484652981427175,3.7215306487375726,0.0,0.0,0.0,0.0,0.0,0.0,0.0,0.0,0.0,0.0,0.0,0.0,62.34199,1,1.0,1.0,1.0,1.0,51.86
2026-01-16 05:44:58.408,,,,,,,,,,,,,,,,,,,,,,,,,,,,,,,,,,,,,,,,,,,,,,,,,,,,,,,,,,/muse/elements/jaw_clench
2026-01-16 05:44:58.549,,,,,,,,,,,,,,,,,,,,,,,,,,,,,,,,,,,,,,,,,,,,,,,,,,,,,,,,,,/muse/elements/blink
2026-01-16 05:44:58.850,-0.03469847,-0.55767757,-0.7413317,0.31119034,0.45893818,-0.22223465,-0.25081733,0.6904879,1.2400435,0.32452738,0.50793797,1.0082575,1.5816481,0.65116584,0.7810531,1.3580937,1.53853,0.7225559,0.8482068,1.491666,720.1764,770.448,751.7732,724.60175,789.83093,800.5402,825.853,1442.4769,-1.0029296875,0.0328369140625,0.00347900390625,0.0897216796875,-0.34393310546875,0.07476806640625,5.011021624585747,5.690740290394106,3.4802279283789908,3.719547004267697,0.0,0.0,0.0,0.0,0.0,0.0,0.0,0.0,0.0,0.0,0.0,0.0,61.2064,1,2.0,1.0,1.0,2.0,51.86
2026-01-16 05:44:59.528,,,,,,,,,,,,,,,,,,,,,,,,,,,,,,,,,,,,,,,,,,,,,,,,,,,,,,,,,,/muse/elements/jaw_clench
2026-01-16 05:44:59.857,-0.30341488,-0.698637,-0.4466175,0.31119034,0.41483843,-0.18673046,-0.15547433,0.6904879,0.8742489,0.2769466,0.47574225,1.0082575,1.01695,0.56439495,0.64882463,1.3580937,1.3112491,0.6601251,0.8011403,1.491666,726.7259,675.21515,694.5096,730.2661,533.0739,520.94855,576.3535,760.53534,-0.99969482421875,0.035888671875,0.00384521484375,0.186920166015625,-0.52337646484375,0.067291259765625,5.011509906301409,5.693090146150729,3.482516748921155,3.7230870467062442,0.0,0.0,0.0,0.0,0.0,0.0,0.0,0.0,0.0,0.0,0.0,0.0,61.400814,1,1.0,1.0,1.0,1.0,51.86
2026-01-16 05:45:00.160,,,,,,,,,,,,,,,,,,,,,,,,,,,,,,,,,,,,,,,,,,,,,,,,,,,,,,,,,,/muse/elements/jaw_clench
2026-01-16 05:45:00.406,,,,,,,,,,,,,,,,,,,,,,,,,,,,,,,,,,,,,,,,,,,,,,,,,,,,,,,,,,/muse/elements/jaw_clench
2026-01-16 05:45:00.656,,,,,,,,,,,,,,,,,,,,,,,,,,,,,,,,,,,,,,,,,,,,,,,,,,,,,,,,,,/muse/elements/jaw_clench
2026-01-16 05:45:00.872,-0.101802036,0.101747744,-0.28805414,0.31119034,0.34266216,-0.11974524,-0.2616589,0.6904879,0.877351,0.21527596,0.39596078,1.0082575,0.78802747,0.4631282,0.39770564,1.3580937,1.0650659,0.5973803,0.61763716,1.491666,721.23846,676.2772,694.1555,718.14075,593.43524,585.6467,650.6989,827.0036,-0.9981689453125,0.03717041015625,0.00250244140625,0.0299072265625,-0.471038818359375,-0.059814453125,5.012974751448394,5.695348449085664,3.4855379920368117,3.7249791383544335,0.0,0.0,0.0,0.0,0.0,0.0,0.0,0.0,0.0,0.0,0.0,0.0,61.07378,1,1.0,1.0,1.0,1.0,51.83
2026-01-16 05:45:00.904,,,,,,,,,,,,,,,,,,,,,,,,,,,,,,,,,,,,,,,,,,,,,,,,,,,,,,,,,,/muse/elements/jaw_clench
2026-01-16 05:45:01.174,,,,,,,,,,,,,,,,,,,,,,,,,,,,,,,,,,,,,,,,,,,,,,,,,,,,,,,,,,/muse/elements/blink
2026-01-16 05:45:01.174,,,,,,,,,,,,,,,,,,,,,,,,,,,,,,,,,,,,,,,,,,,,,,,,,,,,,,,,,,/muse/elements/jaw_clench
2026-01-16 05:45:01.291,,,,,,,,,,,,,,,,,,,,,,,,,,,,,,,,,,,,,,,,,,,,,,,,,,,,,,,,,,/muse/elements/jaw_clench
2026-01-16 05:45:01.653,,,,,,,,,,,,,,,,,,,,,,,,,,,,,,,,,,,,,,,,,,,,,,,,,,,,,,,,,,/muse/elements/jaw_clench
2026-01-16 05:45:01.880,-0.49091586,-0.12662302,-0.34107903,-0.50736195,0.43080673,0.020262621,-0.39143324,0.35391554,1.1728431,0.7260324,0.23804642,1.096025,1.4367722,0.99059296,0.27832747,1.3104508,1.3824551,0.99925596,0.4347413,1.2705293,714.689,705.8384,705.8384,710.0867,710.3522,708.405,750.35706,1125.0046,-1.00201416015625,0.03515625,0.01141357421875,0.0299072265625,-0.418701171875,-0.0897216796875,5.009312638580932,5.689550103712181,3.4771761676561046,3.7182347471568558,0.0,0.0,0.0,0.0,0.0,0.0,0.0,0.0,0.0,0.0,0.0,0.0,60.411903,1,1.0,1.0,1.0,1.0,51.83
2026-01-16 05:45:01.904,,,,,,,,,,,,,,,,,,,,,,,,,,,,,,,,,,,,,,,,,,,,,,,,,,,,,,,,,,/muse/elements/jaw_clench
2026-01-16 05:45:02.172,,,,,,,,,,,,,,,,,,,,,,,,,,,,,,,,,,,,,,,,,,,,,,,,,,,,,,,,,,/muse/elements/jaw_clench
2026-01-16 05:45:02.503,,,,,,,,,,,,,,,,,,,,,,,,,,,,,,,,,,,,,,,,,,,,,,,,,,,,,,,,,,/muse/elements/jaw_clench
2026-01-16 05:45:02.790,,,,,,,,,,,,,,,,,,,,,,,,,,,,,,,,,,,,,,,,,,,,,,,,,,,,,,,,,,/muse/elements/jaw_clench
2026-01-16 05:45:02.889,-0.0337191,-0.5763685,-0.37327912,-0.14045236,0.4695405,0.22827865,0.1469492,0.48588184,1.1931614,0.7633904,0.79709035,1.1018817,1.5600964,1.2725142,1.2448117,1.5712675,1.5280017,1.2657688,1.2582085,1.5501868,736.9926,729.20404,731.94775,737.7007,802.3988,799.0356,805.7621,1448.8494,-1.001953125,0.03863525390625,0.00701904296875,0.1495361328125,-0.5084228515625,-0.11962890625,5.005772596142384,5.6865898958109815,3.4746126886488806,3.714938845576139,0.0,0.0,0.0,0.0,0.0,0.0,0.0,0.0,0.0,0.0,0.0,0.0,61.203022,1,1.0,1.0,1.0,1.0,51.83
2026-01-16 05:45:02.990,,,,,,,,,,,,,,,,,,,,,,,,,,,,,,,,,,,,,,,,,,,,,,,,,,,,,,,,,,/muse/elements/blink
2026-01-16 05:45:03.139,,,,,,,,,,,,,,,,,,,,,,,,,,,,,,,,,,,,,,,,,,,,,,,,,,,,,,,,,,/muse/elements/jaw_clench
2026-01-16 05:45:03.585,,,,,,,,,,,,,,,,,,,,,,,,,,,,,,,,,,,,,,,,,,,,,,,,,,,,,,,,,,/muse/elements/blink
2026-01-16 05:45:03.789,,,,,,,,,,,,,,,,,,,,,,,,,,,,,,,,,,,,,,,,,,,,,,,,,,,,,,,,,,/muse/elements/blink
2026-01-16 05:45:03.870,,,,,,,,,,,,,,,,,,,,,,,,,,,,,,,,,,,,,,,,,,,,,,,,,,,,,,,,,,/muse/elements/jaw_clench
2026-01-16 05:45:03.900,0.20817144,0.027919259,-0.09705286,0.48687422,0.54052675,0.17071152,0.29359618,0.73291516,1.1055466,0.782886,0.8693009,1.2001556,1.653759,1.2003652,1.3004987,1.7344397,1.6599323,1.2742951,1.3436992,1.7788196,556.1741,565.9983,594.1433,555.9971,787.1757,813.99316,790.09644,1450.0,-0.998046875,0.04345703125,0.00311279296875,0.306549072265625,-0.35888671875,0.16448974609375,5.01123524783635,5.6885125050664,3.478457907159717,3.716708866795413,0.0,0.0,0.0,0.0,0.0,0.0,0.0,0.0,0.0,0.0,0.0,0.0,62.571815,1,1.0,1.0,1.0,1.0,51.83
2026-01-16 05:45:04.501,,,,,,,,,,,,,,,,,,,,,,,,,,,,,,,,,,,,,,,,,,,,,,,,,,,,,,,,,,/muse/elements/jaw_clench
2026-01-16 05:45:04.649,,,,,,,,,,,,,,,,,,,,,,,,,,,,,,,,,,,,,,,,,,,,,,,,,,,,,,,,,,/muse/elements/jaw_clench
2026-01-16 05:45:04.923,0.07834867,-0.3764896,0.078659266,0.3501331,0.6736608,0.2545477,0.2854531,0.6991036,1.219097,0.8558256,0.81954247,1.2266455,1.7136185,1.4008503,1.335454,1.68685,1.72799,1.4297584,1.4029145,1.7225457,745.57776,717.0787,716.2821,740.17883,755.579,758.6767,742.3915,1288.2988,-0.99859619140625,0.03607177734375,0.00555419921875,0.171966552734375,-0.31402587890625,0.13458251953125,5.0119981880170705,5.687230765562788,3.4772066852633334,3.715823856185776,0.0,0.0,0.0,0.0,0.0,0.0,0.0,0.0,0.0,0.0,0.0,0.0,61.57231,1,1.0,1.0,1.0,1.0,51.83
2026-01-16 05:45:05.385,,,,,,,,,,,,,,,,,,,,,,,,,,,,,,,,,,,,,,,,,,,,,,,,,,,,,,,,,,/muse/elements/blink
2026-01-16 05:45:05.748,,,,,,,,,,,,,,,,,,,,,,,,,,,,,,,,,,,,,,,,,,,,,,,,,,,,,,,,,,/muse/elements/jaw_clench
2026-01-16 05:45:05.783,,,,,,,,,,,,,,,,,,,,,,,,,,,,,,,,,,,,,,,,,,,,,,,,,,,,,,,,,,/muse/elements/blink
2026-01-16 05:45:05.929,-0.0073938803,-0.5481861,0.078659266,0.07625255,0.47793353,0.2068818,0.2854531,0.5613469,1.1956381,0.7947379,0.81954247,1.1669929,1.4889083,1.2396569,1.335454,1.5753402,1.5413593,1.306717,1.4029145,1.5868635,744.8697,713.71545,720.53046,745.93176,764.6066,746.55133,744.3386,1303.522,-0.999267578125,0.03857421875,4.2724609375E-4,0.2392578125,-0.37384033203125,0.201873779296875,5.007451064539971,5.687047659919415,3.470828505352502,3.7120396728893974,0.0,0.0,0.0,0.0,0.0,0.0,0.0,0.0,0.0,0.0,0.0,0.0,61.1034,1,1.0,1.0,1.0,1.0,51.83
2026-01-16 05:45:06.212,,,,,,,,,,,,,,,,,,,,,,,,,,,,,,,,,,,,,,,,,,,,,,,,,,,,,,,,,,/muse/elements/blink
2026-01-16 05:45:06.940,0.13896325,-0.43787727,-0.3465216,0.027141973,0.3695613,0.055657104,0.10428962,0.45427352,0.8144061,0.39968604,0.67458445,1.0883739,1.2726852,0.747881,1.1208966,1.4328022,1.4158576,0.91687584,1.2355231,1.4199699,739.8248,720.4419,738.85126,743.01105,707.52,697.6958,666.0105,1316.2668,-1.0006103515625,0.04315185546875,0.0040283203125,0.246734619140625,-0.456085205078125,0.179443359375,5.007542617361658,5.687261283170017,3.471286269460935,3.7126805426412037,0.0,0.0,0.0,0.0,0.0,0.0,0.0,0.0,0.0,0.0,0.0,0.0,61.464523,1,1.0,1.0,1.0,1.0,51.80
2026-01-16 05:45:07.143,,,,,,,,,,,,,,,,,,,,,,,,,,,,,,,,,,,,,,,,,,,,,,,,,,,,,,,,,,/muse/elements/jaw_clench
2026-01-16 05:45:07.946,0.28142926,-0.32701647,-0.4480049,0.027141973,0.42241028,0.14761297,-0.064718075,0.45427352,0.7115948,0.31395432,0.6729527,1.0883739,1.4230797,0.8490908,1.0842079,1.4328022,1.5478008,1.0140519,1.2031233,1.4199699,730.7087,726.2833,735.311,728.67303,737.6122,748.4984,728.85004,1212.2719,-0.99908447265625,0.04119873046875,0.00494384765625,0.2093505859375,-0.538330078125,0.067291259765625,5.007542617361658,5.688543022673628,3.4713473046753927,3.7139317645375867,0.0,0.0,0.0,0.0,0.0,0.0,0.0,0.0,0.0,0.0,0.0,0.0,61.23414,1,1.0,1.0,1.0,1.0,51.80
2026-01-16 05:45:08.044,,,,,,,,,,,,,,,,,,,,,,,,,,,,,,,,,,,,,,,,,,,,,,,,,,,,,,,,,,/muse/elements/blink
2026-01-16 05:45:08.530,,,,,,,,,,,,,,,,,,,,,,,,,,,,,,,,,,,,,,,,,,,,,,,,,,,,,,,,,,/muse/elements/jaw_clench
2026-01-16 05:45:08.882,,,,,,,,,,,,,,,,,,,,,,,,,,,,,,,,,,,,,,,,,,,,,,,,,,,,,,,,,,/muse/elements/jaw_clench
2026-01-16 05:45:08.956,0.28142926,-0.32701647,-0.36874193,0.027141973,0.42241028,0.14761297,-0.05036613,0.45427352,0.7115948,0.31395432,0.24180637,1.0883739,1.4230797,0.8490908,0.73710585,1.4328022,1.5478008,1.0140519,0.89263463,1.4199699,739.7363,712.5649,716.63617,733.7179,799.1241,800.8057,751.4191,1284.67,-1.0010986328125,0.03863525390625,0.00250244140625,0.246734619140625,-0.43365478515625,0.082244873046875,5.009404191402618,5.689092339603748,3.470462294065756,3.713718141286985,0.0,0.0,0.0,0.0,0.0,0.0,0.0,0.0,0.0,0.0,0.0,0.0,61.60366,1,1.0,1.0,1.0,1.0,51.80
2026-01-16 05:45:09.136,,,,,,,,,,,,,,,,,,,,,,,,,,,,,,,,,,,,,,,,,,,,,,,,,,,,,,,,,,/muse/elements/jaw_clench
2026-01-16 05:45:09.395,,,,,,,,,,,,,,,,,,,,,,,,,,,,,,,,,,,,,,,,,,,,,,,,,,,,,,,,,,/muse/elements/jaw_clench
2026-01-16 05:45:09.891,,,,,,,,,,,,,,,,,,,,,,,,,,,,,,,,,,,,,,,,,,,,,,,,,,,,,,,,,,/muse/elements/jaw_clench
2026-01-16 05:45:09.966,-0.22258179,-0.121479854,-0.34522045,0.027141973,-0.0031693317,-0.27403685,-0.15195137,0.45427352,0.44884443,0.11679513,0.33804294,1.0883739,0.8637726,0.51129234,0.65322727,1.4328022,0.9755136,0.70779824,0.74073964,1.4199699,709.99817,743.8076,742.0375,707.874,766.3767,766.9963,761.5974,1334.6761,-0.99884033203125,0.03802490234375,0.0089111328125,0.0299072265625,-0.456085205078125,-0.171966552734375,5.01950551939537,5.697850892878431,3.4794039529838114,3.721652719166488,0.0,0.0,0.0,0.0,0.0,0.0,0.0,0.0,0.0,0.0,0.0,0.0,61.907974,1,1.0,1.0,1.0,1.0,51.80
2026-01-16 05:45:10.001,,,,,,,,,,,,,,,,,,,,,,,,,,,,,,,,,,,,,,,,,,,,,,,,,,,,,,,,,,/muse/elements/jaw_clench
2026-01-16 05:45:10.891,,,,,,,,,,,,,,,,,,,,,,,,,,,,,,,,,,,,,,,,,,,,,,,,,,,,,,,,,,/muse/elements/jaw_clench
2026-01-16 05:45:10.969,0.15271516,-0.07751904,-0.19905864,0.027141973,0.23058319,0.020008411,-0.06388935,0.45427352,1.0323073,0.61302006,0.6373653,1.0883739,1.0727282,0.82441515,0.83861667,1.4328022,1.0714256,0.8686434,0.82621086,1.4199699,708.1395,751.3306,721.94653,693.713,546.26135,535.37506,563.69714,592.63873,-1.0029296875,0.0404052734375,0.00555419921875,0.16448974609375,-0.3289794921875,0.2691650390625,5.0227709033688575,5.702703192427819,3.481448632668145,3.7251927616050353,0.0,0.0,0.0,0.0,0.0,0.0,0.0,0.0,0.0,0.0,0.0,0.0,61.826706,1,1.0,1.0,1.0,1.0,51.80
2026-01-16 05:45:11.131,,,,,,,,,,,,,,,,,,,,,,,,,,,,,,,,,,,,,,,,,,,,,,,,,,,,,,,,,,/muse/elements/blink
2026-01-16 05:45:11.131,,,,,,,,,,,,,,,,,,,,,,,,,,,,,,,,,,,,,,,,,,,,,,,,,,,,,,,,,,/muse/elements/jaw_clench
2026-01-16 05:45:11.887,,,,,,,,,,,,,,,,,,,,,,,,,,,,,,,,,,,,,,,,,,,,,,,,,,,,,,,,,,/muse/elements/jaw_clench
2026-01-16 05:45:11.976,0.038403094,-0.01855671,-0.0118562225,0.027141973,0.7950289,0.24195659,0.07945501,0.45427352,1.1155497,0.6253893,0.6373653,1.0883739,1.5883852,1.0786225,1.134151,1.4328022,1.6181958,1.1389339,1.1084402,1.4199699,707.16595,719.2028,718.7603,707.6085,756.0215,767.96985,766.6423,1371.1409,-0.99810791015625,0.0411376953125,0.00341796875,0.216827392578125,-0.456085205078125,-0.16448974609375,5.023808502014639,5.702520086784445,3.4817538087404336,3.7255589728917817,0.0,0.0,0.0,0.0,0.0,0.0,0.0,0.0,0.0,0.0,0.0,0.0,62.54364,1,1.0,1.0,1.0,1.0,51.79
2026-01-16 05:45:12.005,,,,,,,,,,,,,,,,,,,,,,,,,,,,,,,,,,,,,,,,,,,,,,,,,,,,,,,,,,/muse/elements/blink
2026-01-16 05:45:12.152,,,,,,,,,,,,,,,,,,,,,,,,,,,,,,,,,,,,,,,,,,,,,,,,,,,,,,,,,,/muse/elements/jaw_clench
2026-01-16 05:45:12.419,,,,,,,,,,,,,,,,,,,,,,,,,,,,,,,,,,,,,,,,,,,,,,,,,,,,,,,,,,/muse/elements/jaw_clench
2026-01-16 05:45:12.682,,,,,,,,,,,,,,,,,,,,,,,,,,,,,,,,,,,,,,,,,,,,,,,,,,,,,,,,,,/muse/elements/jaw_clench
2026-01-16 05:45:12.993,-0.031566557,0.0038670304,-0.3186579,0.027141973,0.86772454,0.14128415,-0.0025285387,0.45427352,0.91448015,0.6199708,0.6488975,1.0883739,1.5614836,0.88979244,1.0978025,1.4328022,1.6336449,0.92691374,1.1455609,1.4199699,735.84204,735.2225,741.3294,738.3202,757.7031,754.6939,740.7984,1333.7911,-0.9979248046875,0.03662109375,0.005126953125,0.059814453125,-0.61309814453125,-0.097198486328125,5.031651527072455,5.706731516582028,3.4883456119018668,3.726596571537563,0.0,0.0,0.0,0.0,0.0,0.0,0.0,0.0,0.0,0.0,0.0,0.0,64.04549,1,1.0,1.0,1.0,1.0,51.79
2026-01-16 05:45:13.268,,,,,,,,,,,,,,,,,,,,,,,,,,,,,,,,,,,,,,,,,,,,,,,,,,,,,,,,,,/muse/elements/blink
2026-01-16 05:45:13.750,,,,,,,,,,,,,,,,,,,,,,,,,,,,,,,,,,,,,,,,,,,,,,,,,,,,,,,,,,/muse/elements/blink
2026-01-16 05:45:13.995,0.29892036,0.13581343,-0.19901323,0.027141973,0.7029038,0.32140765,0.08993107,0.45427352,1.2354963,0.57224756,0.6488975,1.0883739,1.5729796,1.0356611,1.1749097,1.4328022,1.6782484,1.0520135,1.2095996,1.4199699,726.3718,736.6386,745.93176,728.05347,764.6951,755.4019,747.08234,1326.7106,-0.9991455078125,0.02850341796875,0.00335693359375,0.186920166015625,-0.127105712890625,0.3289794921875,5.04007438666762,5.714513506425387,3.497378823641609,3.734348043773693,0.0,0.0,0.0,0.0,0.0,0.0,0.0,0.0,0.0,0.0,0.0,0.0,64.58948,1,1.0,1.0,1.0,1.0,51.79
2026-01-16 05:45:14.741,,,,,,,,,,,,,,,,,,,,,,,,,,,,,,,,,,,,,,,,,,,,,,,,,,,,,,,,,,/muse/elements/jaw_clench
2026-01-16 05:45:14.886,,,,,,,,,,,,,,,,,,,,,,,,,,,,,,,,,,,,,,,,,,,,,,,,,,,,,,,,,,/muse/elements/jaw_clench
2026-01-16 05:45:15.004,0.16214937,0.13581343,-0.19901323,0.4267926,0.73304296,0.32140765,0.08993107,0.7402856,1.3212713,0.57224756,0.6488975,1.2030576,1.6506841,1.0356611,1.1749097,1.6246072,1.7169886,1.0520135,1.2095996,1.7039125,731.94775,708.4935,713.89246,728.93854,782.48486,783.0159,764.07556,1425.4838,-1.00006103515625,0.0447998046875,-0.0020751953125,-0.10467529296875,-0.657958984375,0.07476806640625,5.036351238585699,5.7172906086832125,3.4968295067114896,3.7355077128483893,0.0,0.0,0.0,0.0,0.0,0.0,0.0,0.0,0.0,0.0,0.0,0.0,64.50157,1,1.0,1.0,1.0,1.0,51.79
2026-01-16 05:45:15.511,,,,,,,,,,,,,,,,,,,,,,,,,,,,,,,,,,,,,,,,,,,,,,,,,,,,,,,,,,/muse/elements/blink
2026-01-16 05:45:15.892,,,,,,,,,,,,,,,,,,,,,,,,,,,,,,,,,,,,,,,,,,,,,,,,,,,,,,,,,,/muse/elements/blink
2026-01-16 05:45:16.008,-0.0629748,-0.13830578,-0.16797909,-0.11886683,0.59094995,0.46354905,0.3085384,0.48701742,1.2640183,0.9046584,0.8530932,1.2030576,1.5069199,1.338182,1.3865114,1.416666,1.5539747,1.2928976,1.351748,1.455202,712.4763,672.6485,689.9957,710.97174,523.4267,504.7519,537.2337,533.605,-1.0008544921875,0.03619384765625,0.005859375,0.25421142578125,-0.3289794921875,-0.291595458984375,5.033909830007391,5.719121665116944,3.4967989891042603,3.7392003433230814,0.0,0.0,0.0,0.0,0.0,0.0,0.0,0.0,0.0,0.0,0.0,0.0,64.793304,1,1.0,1.0,1.0,1.0,51.79
2026-01-16 05:45:16.487,,,,,,,,,,,,,,,,,,,,,,,,,,,,,,,,,,,,,,,,,,,,,,,,,,,,,,,,,,/muse/elements/jaw_clench
2026-01-16 05:45:16.743,,,,,,,,,,,,,,,,,,,,,,,,,,,,,,,,,,,,,,,,,,,,,,,,,,,,,,,,,,/muse/elements/jaw_clench
2026-01-16 05:45:17.004,,,,,,,,,,,,,,,,,,,,,,,,,,,,,,,,,,,,,,,,,,,,,,,,,,,,,,,,,,/muse/elements/jaw_clench
2026-01-16 05:45:17.014,-0.00391132,-0.13830578,-0.19773751,-0.22007927,0.46905455,0.46354905,0.27292052,0.30573404,1.0643554,0.9046584,0.8278995,0.7316092,1.5293157,1.338182,1.3503485,1.1504524,1.6063238,1.2928976,1.2976199,1.3250839,742.74554,781.1573,762.4824,743.18805,729.8236,729.9121,707.7855,1118.4551,-1.00067138671875,0.03863525390625,0.0079345703125,0.28411865234375,-0.171966552734375,-0.13458251953125,5.029027012850774,5.721349450444651,3.4894442457621055,3.735172019168872,0.0,0.0,0.0,0.0,0.0,0.0,0.0,0.0,0.0,0.0,0.0,0.0,63.390957,1,1.0,1.0,1.0,1.0,51.79
2026-01-16 05:45:17.140,,,,,,,,,,,,,,,,,,,,,,,,,,,,,,,,,,,,,,,,,,,,,,,,,,,,,,,,,,/muse/elements/jaw_clench
2026-01-16 05:45:17.505,,,,,,,,,,,,,,,,,,,,,,,,,,,,,,,,,,,,,,,,,,,,,,,,,,,,,,,,,,/muse/elements/jaw_clench
2026-01-16 05:45:17.921,,,,,,,,,,,,,,,,,,,,,,,,,,,,,,,,,,,,,,,,,,,,,,,,,,,,,,,,,,/muse/elements/jaw_clench
2026-01-16 05:45:18.024,0.16415776,-0.086728096,-0.29397285,-0.50935924,0.24985236,-0.28932592,-0.33844033,-0.14785303,0.40037408,-0.049142595,-0.33006302,-0.12386811,0.70739573,0.43721145,0.24752577,0.6575835,0.70715094,0.42867944,0.35457185,0.75322133,722.03503,692.73944,704.5108,716.0166,745.1352,755.579,740.7984,1208.112,-1.001953125,0.03912353515625,0.00836181640625,0.22430419921875,-0.381317138671875,-0.11962890625,5.027318026845958,5.722020837803686,3.4891085520825884,3.7373998044965786,0.0,0.0,0.0,0.0,0.0,0.0,0.0,0.0,0.0,0.0,0.0,0.0,61.354668,1,1.0,1.0,1.0,1.0,51.79
2026-01-16 05:45:18.172,,,,,,,,,,,,,,,,,,,,,,,,,,,,,,,,,,,,,,,,,,,,,,,,,,,,,,,,,,/muse/elements/jaw_clench
2026-01-16 05:45:18.484,,,,,,,,,,,,,,,,,,,,,,,,,,,,,,,,,,,,,,,,,,,,,,,,,,,,,,,,,,/muse/elements/jaw_clench
2026-01-16 05:45:18.643,,,,,,,,,,,,,,,,,,,,,,,,,,,,,,,,,,,,,,,,,,,,,,,,,,,,,,,,,,/muse/elements/jaw_clench
2026-01-16 05:45:19.036,0.71227676,-0.1957622,-0.30937487,0.6475858,0.7980819,-0.20307587,-0.26749662,0.7314595,0.5837562,0.1344555,0.06822405,0.42882177,0.6285238,0.32845452,0.2789136,0.70961195,0.5037142,0.36215174,0.22205229,0.51271147,720.70746,715.6626,724.4247,731.59375,747.7904,740.44434,733.7179,1198.3763,-1.0035400390625,0.03564453125,0.00262451171875,0.19439697265625,-0.34393310546875,-0.16448974609375,5.024998688696565,5.720494957442243,3.4870333547910257,3.7348363254893546,0.0,0.0,0.0,0.0,0.0,0.0,0.0,0.0,0.0,0.0,0.0,0.0,60.746452,1,1.0,1.0,1.0,1.0,51.79
2026-01-16 05:45:19.745,,,,,,,,,,,,,,,,,,,,,,,,,,,,,,,,,,,,,,,,,,,,,,,,,,,,,,,,,,/muse/elements/jaw_clench
2026-01-16 05:45:20.048,0.05878832,-0.22036815,-0.39795095,0.47743803,0.42347214,-0.06404628,-0.22165407,0.5430119,0.64414483,0.3735823,0.43798846,0.49398565,1.1763096,0.59507805,0.6130146,1.1120566,1.1194022,0.6494124,0.58513665,0.98217225,723.0086,687.5176,708.3165,721.06146,745.2237,750.44556,726.1063,1171.736,-0.9991455078125,0.03985595703125,4.8828125E-4,0.142059326171875,-0.31402587890625,0.11962890625,5.0130663042700805,5.70615168204468,3.469577283456119,3.7206151205207068,0.0,0.0,0.0,0.0,0.0,0.0,0.0,0.0,0.0,0.0,0.0,0.0,60.61224,1,1.0,1.0,1.0,1.0,51.79
2026-01-16 05:45:20.733,,,,,,,,,,,,,,,,,,,,,,,,,,,,,,,,,,,,,,,,,,,,,,,,,,,,,,,,,,/muse/elements/blink
2026-01-16 05:45:20.733,,,,,,,,,,,,,,,,,,,,,,,,,,,,,,,,,,,,,,,,,,,,,,,,,,,,,,,,,,/muse/elements/jaw_clench
2026-01-16 05:45:20.916,,,,,,,,,,,,,,,,,,,,,,,,,,,,,,,,,,,,,,,,,,,,,,,,,,,,,,,,,,/muse/elements/jaw_clench
2026-01-16 05:45:21.048,-0.0097774835,-0.3211161,-0.1454576,-0.32884148,0.2010821,-0.6126947,0.0050587947,0.22200246,0.790393,-0.021278694,0.41108292,0.7533983,1.0794734,0.37511897,0.36998478,1.0735114,1.209898,0.46643874,0.6069188,1.2229006,697.8728,664.24036,690.7923,697.07623,756.81805,761.06635,750.18005,1277.9436,-0.99249267578125,0.034912109375,0.01812744140625,-0.201873779296875,-0.28411865234375,0.35888671875,5.017003075602603,5.704442696039863,3.4725374913573184,3.7191502753737216,0.0,0.0,0.0,0.0,0.0,0.0,0.0,0.0,0.0,0.0,0.0,0.0,60.922928,1,1.0,1.0,1.0,1.0,51.79
2026-01-16 05:45:21.416,,,,,,,,,,,,,,,,,,,,,,,,,,,,,,,,,,,,,,,,,,,,,,,,,,,,,,,,,,/muse/elements/jaw_clench
2026-01-16 05:45:21.618,,,,,,,,,,,,,,,,,,,,,,,,,,,,,,,,,,,,,,,,,,,,,,,,,,,,,,,,,,/muse/elements/jaw_clench
2026-01-16 05:45:22.017,,,,,,,,,,,,,,,,,,,,,,,,,,,,,,,,,,,,,,,,,,,,,,,,,,,,,,,,,,/muse/elements/jaw_clench
2026-01-16 05:45:22.061,-0.0097774835,-0.065752536,-0.20786911,-0.32884148,0.2010821,-0.43366006,0.051243473,0.22200246,0.790393,-0.27059892,0.21120287,0.7533983,1.0794734,0.5005724,0.33236143,1.0735114,1.209898,0.6773344,0.5298999,1.2229006,704.5993,673.7991,688.75665,690.9693,738.93976,745.4892,741.3294,1195.5442,-0.9996337890625,0.0457763671875,-0.00177001953125,0.336456298828125,0.665435791015625,0.949554443359375,5.0090684977231,5.692968075721813,3.4619783992561333,3.7070347853038648,0.0,0.0,0.0,0.0,0.0,0.0,0.0,0.0,0.0,0.0,0.0,0.0,61.70678,1,1.0,1.0,1.0,1.0,51.79
2026-01-16 05:45:22.513,,,,,,,,,,,,,,,,,,,,,,,,,,,,,,,,,,,,,,,,,,,,,,,,,,,,,,,,,,/muse/elements/jaw_clench
2026-01-16 05:45:22.747,,,,,,,,,,,,,,,,,,,,,,,,,,,,,,,,,,,,,,,,,,,,,,,,,,,,,,,,,,/muse/elements/jaw_clench
2026-01-16 05:45:23.061,,,,,,,,,,,,,,,,,,,,,,,,,,,,,,,,,,,,,,,,,,,,,,,,,,,,,,,,,,/muse/elements/blink
2026-01-16 05:45:23.074,-0.0097774835,-0.020647585,-0.117937215,-0.32884148,0.2010821,-0.26555726,-0.17420205,0.22200246,0.790393,-0.38186792,-0.04763011,0.7533983,1.0794734,0.3462464,0.35273418,1.0735114,1.209898,0.4559827,0.46497196,1.2229006,712.3878,684.86237,702.65216,712.2108,742.92255,745.66626,757.34906,1282.8999,-1.0009765625,0.04376220703125,-0.00830078125,0.13458251953125,-1.054229736328125,-0.381317138671875,5.012974751448394,5.692449276398922,3.461398564718785,3.704806999976158,0.0,0.0,0.0,0.0,0.0,0.0,0.0,0.0,0.0,0.0,0.0,0.0,61.92306,1,2.0,1.0,1.0,2.0,51.79
2026-01-16 05:45:23.762,,,,,,,,,,,,,,,,,,,,,,,,,,,,,,,,,,,,,,,,,,,,,,,,,,,,,,,,,,/muse/elements/jaw_clench
2026-01-16 05:45:24.043,,,,,,,,,,,,,,,,,,,,,,,,,,,,,,,,,,,,,,,,,,,,,,,,,,,,,,,,,,/muse/elements/jaw_clench
2026-01-16 05:45:24.083,-0.0097774835,-0.020647585,-0.06969685,-0.32884148,0.2010821,-0.26555726,0.07150731,0.22200246,0.790393,-0.38186792,-0.11898023,0.7533983,1.0794734,0.3462464,0.5089397,1.0735114,1.209898,0.4559827,0.59887177,1.2229006,723.4511,705.7499,712.1223,718.22925,767.0848,761.5974,752.4812,1211.9178,-1.00115966796875,0.040771484375,0.011962890625,0.007476806640625,-0.276641845703125,0.0299072265625,5.018864649643564,5.696050354051928,3.465487924087452,3.704806999976158,0.0,0.0,0.0,0.0,0.0,0.0,0.0,0.0,0.0,0.0,0.0,0.0,66.08222,1,2.0,1.0,1.0,2.0,51.76
2026-01-16 05:45:24.626,,,,,,,,,,,,,,,,,,,,,,,,,,,,,,,,,,,,,,,,,,,,,,,,,,,,,,,,,,/muse/elements/jaw_clench
2026-01-16 05:45:24.995,,,,,,,,,,,,,,,,,,,,,,,,,,,,,,,,,,,,,,,,,,,,,,,,,,,,,,,,,,/muse/elements/jaw_clench
2026-01-16 05:45:25.089,-0.16470923,-0.053241603,-0.22773355,-0.25270432,0.6490896,0.24560896,0.19209474,0.40726998,1.2410055,0.76858425,0.84073037,1.1615646,1.5170345,1.1628243,1.1785699,1.4886386,1.5873433,1.2183492,1.2027382,1.5544745,723.8052,726.8144,729.7351,729.20404,737.8777,751.5077,767.52734,1301.3978,-0.9979248046875,0.04205322265625,0.0028076171875,0.16448974609375,-0.37384033203125,0.037384033203125,5.036015544906182,5.706273752473595,3.481265527024772,3.712405884176144,0.0,0.0,0.0,0.0,0.0,0.0,0.0,0.0,0.0,0.0,0.0,0.0,69.64617,1,1.0,1.0,1.0,1.0,51.76
2026-01-16 05:45:25.505,,,,,,,,,,,,,,,,,,,,,,,,,,,,,,,,,,,,,,,,,,,,,,,,,,,,,,,,,,/muse/elements/jaw_clench
2026-01-16 05:45:25.893,,,,,,,,,,,,,,,,,,,,,,,,,,,,,,,,,,,,,,,,,,,,,,,,,,,,,,,,,,/muse/elements/jaw_clench
2026-01-16 05:45:26.105,0.0385854,0.006574697,-0.09204933,-0.24266307,0.64506316,0.20329536,0.15490806,0.5690358,1.2498723,0.7625704,0.8344825,1.1555756,1.5665368,1.1132348,1.1552464,1.6148393,1.627994,1.2015043,1.1698562,1.6754777,738.93976,756.1985,749.56055,739.6478,739.6478,753.2778,728.05347,1212.0948,-0.99920654296875,0.039794921875,0.0069580078125,0.112152099609375,-0.25421142578125,0.13458251953125,5.040654221204969,5.715001788141048,3.4845003933910306,3.7190282049448062,0.0,0.0,0.0,0.0,0.0,0.0,0.0,0.0,0.0,0.0,0.0,0.0,72.16049,1,1.0,1.0,1.0,1.0,51.76
2026-01-16 05:45:26.118,,,,,,,,,,,,,,,,,,,,,,,,,,,,,,,,,,,,,,,,,,,,,,,,,,,,,,,,,,/muse/elements/jaw_clench
2026-01-16 05:45:26.224,,,,,,,,,,,,,,,,,,,,,,,,,,,,,,,,,,,,,,,,,,,,,,,,,,,,,,,,,,/muse/elements/blink
2026-01-16 05:45:26.822,,,,,,,,,,,,,,,,,,,,,,,,,,,,,,,,,,,,,,,,,,,,,,,,,,,,,,,,,,/muse/elements/jaw_clench
2026-01-16 05:45:27.117,-0.09179456,-0.21701014,-0.5420072,-0.12058134,0.5951967,-0.115121424,0.044222914,0.4452547,1.1766093,0.52822727,0.8697241,1.1762863,1.5637606,0.8501684,1.2411745,1.4253886,1.6509916,1.0559638,1.3197064,1.6160784,747.25934,771.77563,762.3939,745.4892,760.0928,754.16284,741.8605,1221.5651,-1.00018310546875,0.0416259765625,0.00579833984375,0.179443359375,-0.157012939453125,0.351409912109375,5.048802422335074,5.726384855637413,3.4929842882006534,3.729099015330329,0.0,0.0,0.0,0.0,0.0,0.0,0.0,0.0,0.0,0.0,0.0,0.0,70.79112,1,1.0,1.0,1.0,1.0,51.76
2026-01-16 05:45:27.119,,,,,,,,,,,,,,,,,,,,,,,,,,,,,,,,,,,,,,,,,,,,,,,,,,,,,,,,,,/muse/elements/jaw_clench
2026-01-16 05:45:27.319,,,,,,,,,,,,,,,,,,,,,,,,,,,,,,,,,,,,,,,,,,,,,,,,,,,,,,,,,,/muse/elements/jaw_clench
2026-01-16 05:45:27.621,,,,,,,,,,,,,,,,,,,,,,,,,,,,,,,,,,,,,,,,,,,,,,,,,,,,,,,,,,/muse/elements/jaw_clench
2026-01-16 05:45:27.874,,,,,,,,,,,,,,,,,,,,,,,,,,,,,,,,,,,,,,,,,,,,,,,,,,,,,,,,,,/muse/elements/jaw_clench
2026-01-16 05:45:28.132,-0.055603027,-0.21287592,-0.5872735,-0.26251486,0.39977574,-0.18128066,-0.014429233,0.0965315,1.0721549,0.5031382,0.84661406,0.8517375,1.4155529,0.7402204,1.0947311,0.9886889,1.4984845,0.8945696,1.1318434,1.204906,737.8777,750.5341,739.47076,743.8076,737.9662,739.29376,715.39703,1107.6573,-1.00140380859375,0.0389404296875,0.00244140625,0.276641845703125,-0.396270751953125,0.07476806640625,5.018284815106216,5.71390315428081,3.462283575328422,3.715396609684572,0.0,0.0,0.0,0.0,0.0,0.0,0.0,0.0,0.0,0.0,0.0,0.0,66.9925,1,1.0,1.0,1.0,1.0,51.76
2026-01-16 05:45:28.768,,,,,,,,,,,,,,,,,,,,,,,,,,,,,,,,,,,,,,,,,,,,,,,,,,,,,,,,,,/muse/elements/jaw_clench
2026-01-16 05:45:29.147,-0.055603027,-0.29162028,-0.35575235,0.17183165,0.39977574,-0.16531675,-0.11210873,0.34660274,1.0721549,0.38610086,0.46859556,0.9470206,1.4155529,0.64433134,0.85026854,1.2511665,1.4984845,0.8022425,0.9155792,1.417542,740.7984,703.80273,716.9017,739.38226,733.36383,743.18805,717.78674,1105.7102,-0.9989013671875,0.04266357421875,0.0020751953125,0.0897216796875,-0.64300537109375,-0.059814453125,5.0181627446773005,5.712957108456715,3.461612187969387,3.7129246834990344,0.0,0.0,0.0,0.0,0.0,0.0,0.0,0.0,0.0,0.0,0.0,0.0,66.50085,1,1.0,1.0,1.0,1.0,51.76
2026-01-16 05:45:29.651,,,,,,,,,,,,,,,,,,,,,,,,,,,,,,,,,,,,,,,,,,,,,,,,,,,,,,,,,,/muse/elements/jaw_clench
2026-01-16 05:45:29.860,,,,,,,,,,,,,,,,,,,,,,,,,,,,,,,,,,,,,,,,,,,,,,,,,,,,,,,,,,/muse/elements/jaw_clench
2026-01-16 05:45:30.048,,,,,,,,,,,,,,,,,,,,,,,,,,,,,,,,,,,,,,,,,,,,,,,,,,,,,,,,,,/muse/elements/blink
2026-01-16 05:45:30.164,-0.13839449,-0.44414163,-0.29790404,-0.141127,0.47876403,-0.1404047,-0.118863136,0.2627822,0.89679533,0.55971944,0.26040184,0.65253717,1.2558671,0.6499042,0.6834021,1.2327415,1.3939531,0.8037539,0.8738809,1.3321971,776.1124,702.91766,719.8224,731.77075,552.0143,511.9209,533.3394,813.63916,-0.996337890625,0.041748046875,0.00506591796875,0.22430419921875,-0.58319091796875,0.157012939453125,5.018071191855613,5.710607252700093,3.4604830365019192,3.7112156974942185,0.0,0.0,0.0,0.0,0.0,0.0,0.0,0.0,0.0,0.0,0.0,0.0,65.48693,1,1.0,1.0,1.0,1.0,51.76
2026-01-16 05:45:30.260,,,,,,,,,,,,,,,,,,,,,,,,,,,,,,,,,,,,,,,,,,,,,,,,,,,,,,,,,,/muse/elements/blink
2026-01-16 05:45:30.858,,,,,,,,,,,,,,,,,,,,,,,,,,,,,,,,,,,,,,,,,,,,,,,,,,,,,,,,,,/muse/elements/jaw_clench
2026-01-16 05:45:31.175,-0.15595052,-0.45011052,-0.3117129,-0.1844704,0.3570025,-0.17810278,-0.19221467,0.08160485,0.8371466,0.4628117,0.3388895,0.6432732,1.0876484,0.6747002,0.69132656,1.0887251,1.2677335,0.8811069,0.9688212,1.4167379,722.38904,702.4751,723.3626,723.9822,731.50525,745.57776,731.85925,1158.283,-1.0006103515625,0.04168701171875,0.010009765625,-0.16448974609375,-0.456085205078125,-0.067291259765625,5.020482082826693,5.708409984979615,3.460513554109148,3.707645137448442,0.0,0.0,0.0,0.0,0.0,0.0,0.0,0.0,0.0,0.0,0.0,0.0,63.72007,1,1.0,1.0,1.0,1.0,51.76
2026-01-16 05:45:31.846,,,,,,,,,,,,,,,,,,,,,,,,,,,,,,,,,,,,,,,,,,,,,,,,,,,,,,,,,,/muse/elements/jaw_clench
2026-01-16 05:45:32.191,-0.15595052,0.07057321,-0.5868826,-0.15664484,0.3570025,0.07562352,-0.59245473,0.1550139,0.8371466,0.27199045,0.1720384,0.58870786,1.0876484,0.56728464,0.83865374,1.0902766,1.2677335,0.6407765,1.0026436,1.4117585,702.0326,706.1039,719.0258,697.9613,747.8789,753.89734,760.0043,1271.1287,-0.99993896484375,0.0455322265625,0.00836181640625,0.11962890625,-0.246734619140625,0.127105712890625,5.021763822330305,5.709325513196481,3.459048708962163,3.70743151419784,0.0,0.0,0.0,0.0,0.0,0.0,0.0,0.0,0.0,0.0,0.0,0.0,62.791866,1,1.0,1.0,1.0,1.0,51.76
2026-01-16 05:45:32.990,,,,,,,,,,,,,,,,,,,,,,,,,,,,,,,,,,,,,,,,,,,,,,,,,,,,,,,,,,/muse/elements/jaw_clench
2026-01-16 05:45:33.125,,,,,,,,,,,,,,,,,,,,,,,,,,,,,,,,,,,,,,,,,,,,,,,,,,,,,,,,,,/muse/elements/blink
2026-01-16 05:45:33.206,0.041318167,-0.16904001,0.20378605,-0.15664484,0.088530965,-0.033686265,0.075886294,0.1550139,0.5529333,0.32245207,0.13882934,0.58870786,0.8397649,0.31043208,0.22256343,1.0902766,1.0110974,0.58301145,0.46834832,1.4117585,701.9441,708.9361,723.3626,703.00616,751.4191,742.48,740.5329,1254.8434,-0.99951171875,0.04461669921875,0.00634765625,0.216827392578125,-0.276641845703125,0.052337646484375,5.025303864768853,5.709142407553108,3.45965906110674,3.707889278306273,0.0,0.0,0.0,0.0,0.0,0.0,0.0,0.0,0.0,0.0,0.0,0.0,63.4666,1,1.0,1.0,1.0,1.0,51.76
2026-01-16 05:45:34.112,,,,,,,,,,,,,,,,,,,,,,,,,,,,,,,,,,,,,,,,,,,,,,,,,,,,,,,,,,/muse/elements/jaw_clench
2026-01-16 05:45:34.218,0.1760673,-0.35789916,0.0033420012,0.2841933,0.48081186,0.19327214,0.14165674,0.52266484,0.9346509,0.7994511,0.837377,1.0457462,1.4066921,1.0723847,1.1005609,1.4159235,1.5050433,1.180237,1.1631669,1.5155358,703.62573,737.6122,734.86847,702.4751,744.5157,741.949,764.25256,1265.8182,-1.00115966796875,0.0423583984375,0.00567626953125,0.35888671875,-0.418701171875,0.067291259765625,5.0307054812483605,5.715825763536228,3.4660067234103424,3.7155797153279453,0.0,0.0,0.0,0.0,0.0,0.0,0.0,0.0,0.0,0.0,0.0,0.0,63.05888,1,1.0,1.0,1.0,1.0,51.76
2026-01-16 05:45:34.370,,,,,,,,,,,,,,,,,,,,,,,,,,,,,,,,,,,,,,,,,,,,,,,,,,,,,,,,,,/muse/elements/jaw_clench
2026-01-16 05:45:34.754,,,,,,,,,,,,,,,,,,,,,,,,,,,,,,,,,,,,,,,,,,,,,,,,,,,,,,,,,,/muse/elements/jaw_clench
2026-01-16 05:45:35.225,0.19046292,-0.14691676,-0.10836388,0.44170645,0.54560065,0.056642123,0.03346621,0.18791068,0.9346509,0.73528165,0.84180737,0.8980293,1.4859488,1.1351177,1.1627365,1.3008715,1.5834694,1.1665661,1.2347275,1.3304974,732.47876,763.279,742.126,731.0627,760.97784,753.01227,754.42834,1191.2959,-0.99774169921875,0.03900146484375,0.0054931640625,0.426177978515625,-0.4486083984375,0.2691650390625,5.031071692535107,5.71497127053382,3.465915170588656,3.7148472927544525,0.0,0.0,0.0,0.0,0.0,0.0,0.0,0.0,0.0,0.0,0.0,0.0,61.235886,1,1.0,1.0,1.0,1.0,51.76
2026-01-16 05:45:35.369,,,,,,,,,,,,,,,,,,,,,,,,,,,,,,,,,,,,,,,,,,,,,,,,,,,,,,,,,,/muse/elements/blink
2026-01-16 05:45:36.006,,,,,,,,,,,,,,,,,,,,,,,,,,,,,,,,,,,,,,,,,,,,,,,,,,,,,,,,,,/muse/elements/blink
2026-01-16 05:45:36.237,0.19046292,0.013655674,0.115950435,-0.23705354,0.54560065,-0.08175603,0.024324132,0.45924348,0.9346509,0.46952114,0.6432692,1.1044134,1.4859488,1.0959206,1.0864762,1.4469166,1.5834694,1.1070317,1.1767439,1.5610985,720.70746,702.65216,712.7419,722.9201,755.4904,755.2249,776.46643,1284.847,-1.00103759765625,0.04339599609375,0.00244140625,0.22430419921875,-0.3887939453125,0.022430419921875,5.027684238132704,5.711095534415755,3.461184941468183,3.7088048065231387,0.0,0.0,0.0,0.0,0.0,0.0,0.0,0.0,0.0,0.0,0.0,0.0,60.80231,1,1.0,1.0,1.0,1.0,51.76
2026-01-16 05:45:36.467,,,,,,,,,,,,,,,,,,,,,,,,,,,,,,,,,,,,,,,,,,,,,,,,,,,,,,,,,,/muse/elements/jaw_clench
2026-01-16 05:45:37.050,,,,,,,,,,,,,,,,,,,,,,,,,,,,,,,,,,,,,,,,,,,,,,,,,,,,,,,,,,/muse/elements/jaw_clench
2026-01-16 05:45:37.244,0.19046292,-0.25803053,0.115950435,-0.022576781,0.54560065,0.082653075,0.024324132,0.5968949,0.9346509,0.6255232,0.6432692,1.118752,1.4859488,0.9822997,1.0864762,1.5165007,1.5834694,1.1176707,1.1767439,1.5912294,712.4763,735.75354,730.8857,705.6614,747.17084,757.34906,760.4468,1252.8077,-0.99639892578125,0.0404052734375,0.0030517578125,0.1495361328125,-0.5084228515625,-0.037384033203125,5.02457144219536,5.706487375724197,3.4595064730705958,3.7047154471544714,0.0,0.0,0.0,0.0,0.0,0.0,0.0,0.0,0.0,0.0,0.0,0.0,61.55235,1,1.0,1.0,1.0,1.0,51.76
2026-01-16 05:45:37.599,,,,,,,,,,,,,,,,,,,,,,,,,,,,,,,,,,,,,,,,,,,,,,,,,,,,,,,,,,/muse/elements/jaw_clench
2026-01-16 05:45:37.858,,,,,,,,,,,,,,,,,,,,,,,,,,,,,,,,,,,,,,,,,,,,,,,,,,,,,,,,,,/muse/elements/jaw_clench
2026-01-16 05:45:38.100,,,,,,,,,,,,,,,,,,,,,,,,,,,,,,,,,,,,,,,,,,,,,,,,,,,,,,,,,,/muse/elements/jaw_clench
2026-01-16 05:45:38.250,0.21275878,-0.033629328,-0.49557665,-0.012812131,0.51105773,0.10697998,0.17454784,0.5356583,1.109872,0.60335404,0.91163284,1.1809461,1.3505841,0.8623352,1.0264195,1.3843589,1.4913691,1.0747422,1.2193657,1.547573,742.2145,734.957,732.30176,739.02826,769.4744,767.70435,755.756,1349.8108,-1.00030517578125,0.042236328125,0.00262451171875,-0.01495361328125,-0.471038818359375,-0.112152099609375,5.024754547838733,5.705388741863958,3.459323367427223,3.7039525069737502,0.0,0.0,0.0,0.0,0.0,0.0,0.0,0.0,0.0,0.0,0.0,0.0,61.6653,1,1.0,1.0,1.0,1.0,51.76
2026-01-16 05:45:38.485,,,,,,,,,,,,,,,,,,,,,,,,,,,,,,,,,,,,,,,,,,,,,,,,,,,,,,,,,,/muse/elements/blink
2026-01-16 05:45:38.879,,,,,,,,,,,,,,,,,,,,,,,,,,,,,,,,,,,,,,,,,,,,,,,,,,,,,,,,,,/muse/elements/blink
2026-01-16 05:45:39.261,0.06485626,0.012321283,-0.6429911,-0.11994843,0.51877016,0.089567535,-0.024518471,0.41714495,1.2446654,0.47476804,0.80632395,1.3201848,1.3465183,0.87520415,0.92635745,1.296303,1.5045929,1.073463,1.1255329,1.4842718,719.8224,710.70624,708.4935,719.9994,594.4973,584.1421,599.3652,637.1574,-0.9986572265625,0.04010009765625,0.00408935546875,0.19439697265625,-0.418701171875,0.0897216796875,5.028599766349569,5.707860668049496,3.4599337195718,3.703555778079775,0.0,0.0,0.0,0.0,0.0,0.0,0.0,0.0,0.0,0.0,0.0,0.0,61.50374,1,1.0,1.0,1.0,1.0,51.76
2026-01-16 05:45:39.614,,,,,,,,,,,,,,,,,,,,,,,,,,,,,,,,,,,,,,,,,,,,,,,,,,,,,,,,,,/muse/elements/jaw_clench
2026-01-16 05:45:39.761,,,,,,,,,,,,,,,,,,,,,,,,,,,,,,,,,,,,,,,,,,,,,,,,,,,,,,,,,,/muse/elements/jaw_clench
2026-01-16 05:45:39.874,,,,,,,,,,,,,,,,,,,,,,,,,,,,,,,,,,,,,,,,,,,,,,,,,,,,,,,,,,/muse/elements/blink
2026-01-16 05:45:40.274,-0.13629034,-0.09671306,-0.45432577,-0.13262649,0.49149475,-0.0018471497,-0.15616012,0.3597483,1.2459844,0.34484828,0.75499654,1.333285,1.2109694,0.64687747,0.7381738,1.0979915,1.393018,1.0065197,0.92655003,1.3256804,719.4683,712.9189,717.87524,727.1684,728.14197,744.1616,728.14197,1145.9806,-0.99981689453125,0.042236328125,0.0057373046875,0.142059326171875,-0.37384033203125,0.28411865234375,5.029850988245953,5.708928784302506,3.4613375295043274,3.7036473309014615,0.0,0.0,0.0,0.0,0.0,0.0,0.0,0.0,0.0,0.0,0.0,0.0,62.33393,1,1.0,1.0,1.0,1.0,51.74
2026-01-16 05:45:40.862,,,,,,,,,,,,,,,,,,,,,,,,,,,,,,,,,,,,,,,,,,,,,,,,,,,,,,,,,,/muse/elements/jaw_clench
2026-01-16 05:45:41.289,-0.21782315,-0.0951647,-0.5022332,-0.08238778,0.0036590598,-0.09857775,-0.20732243,0.12799476,0.7791722,0.45914808,0.323186,1.0056089,0.58597696,0.58929235,0.4479,0.69647706,0.95748043,0.8642811,0.7745762,1.0776852,730.4431,759.7388,753.10077,731.0627,755.933,739.47076,720.79596,1113.4988,-1.00006103515625,0.04296875,0.00445556640625,0.231781005859375,-0.351409912109375,-0.0,5.029515294566435,5.709203442767565,3.4618868464344468,3.704349235867725,0.0,0.0,0.0,0.0,0.0,0.0,0.0,0.0,0.0,0.0,0.0,0.0,62.92428,1,1.0,1.0,1.0,1.0,51.74
2026-01-16 05:45:41.722,,,,,,,,,,,,,,,,,,,,,,,,,,,,,,,,,,,,,,,,,,,,,,,,,,,,,,,,,,/muse/elements/jaw_clench
2026-01-16 05:45:42.296,-0.15630507,-0.49977496,-0.49332076,-0.23780139,0.2689156,-0.17639945,-0.25256822,0.14938013,0.716096,0.35847127,0.469499,0.64343417,0.90849745,0.67282706,0.6049077,0.9420069,0.9413905,0.72088486,0.6388671,1.0637285,724.2477,740.17883,735.57654,718.6718,761.8629,756.64105,755.579,1237.5847,-0.9969482421875,0.043701171875,0.00640869140625,0.171966552734375,-0.276641845703125,0.07476806640625,5.035954509691725,5.714666094461531,3.465487924087452,3.7077061726628995,0.0,0.0,0.0,0.0,0.0,0.0,0.0,0.0,0.0,0.0,0.0,0.0,62.565514,1,1.0,1.0,1.0,1.0,51.74
2026-01-16 05:45:42.525,,,,,,,,,,,,,,,,,,,,,,,,,,,,,,,,,,,,,,,,,,,,,,,,,,,,,,,,,,/muse/elements/jaw_clench
2026-01-16 05:45:42.842,,,,,,,,,,,,,,,,,,,,,,,,,,,,,,,,,,,,,,,,,,,,,,,,,,,,,,,,,,/muse/elements/jaw_clench
2026-01-16 05:45:43.048,,,,,,,,,,,,,,,,,,,,,,,,,,,,,,,,,,,,,,,,,,,,,,,,,,,,,,,,,,/muse/elements/jaw_clench
2026-01-16 05:45:43.302,-0.16131249,-0.5512198,-0.7488684,-0.17461929,0.29673636,-2.1549306E-4,-0.10017623,0.17572707,1.1548082,0.86930156,0.8363321,1.2210405,1.0530783,0.7488659,0.7147789,1.1319157,1.0810196,0.7905387,0.71843415,1.142193,725.22125,724.3362,717.60974,719.4683,512.71747,495.98975,532.6314,499.79553,-0.99713134765625,0.04315185546875,0.005126953125,0.16448974609375,-0.590667724609375,-0.127105712890625,5.040196457096536,5.718419760150681,3.4700960827790097,3.7093236058460293,0.0,0.0,0.0,0.0,0.0,0.0,0.0,0.0,0.0,0.0,0.0,0.0,62.373672,1,1.0,1.0,1.0,1.0,51.74
2026-01-16 05:45:44.313,0.029677756,-0.2392254,-0.48130974,-0.041770767,0.29712784,0.06500427,-0.052380253,0.4433261,1.157171,0.87096417,0.84019005,1.2258906,1.317506,0.9629539,1.0047609,1.3472685,1.363666,1.0169928,0.9783288,1.3498815,743.45355,754.42834,748.6755,742.3915,756.99506,751.5962,753.63184,1220.7684,-0.9989013671875,0.04205322265625,0.00762939453125,0.22430419921875,-0.590667724609375,0.022430419921875,5.0448046157880935,5.719091147509715,3.4737276780392436,3.7100865460267505,0.0,0.0,0.0,0.0,0.0,0.0,0.0,0.0,0.0,0.0,0.0,0.0,63.11744,1,1.0,1.0,1.0,1.0,51.74
2026-01-16 05:45:44.337,,,,,,,,,,,,,,,,,,,,,,,,,,,,,,,,,,,,,,,,,,,,,,,,,,,,,,,,,,/muse/elements/jaw_clench
2026-01-16 05:45:44.507,,,,,,,,,,,,,,,,,,,,,,,,,,,,,,,,,,,,,,,,,,,,,,,,,,,,,,,,,,/muse/elements/blink
2026-01-16 05:45:44.850,,,,,,,,,,,,,,,,,,,,,,,,,,,,,,,,,,,,,,,,,,,,,,,,,,,,,,,,,,/muse/elements/jaw_clench
2026-01-16 05:45:45.324,0.021373827,-0.323636,-0.45169765,-0.07957814,0.5668005,0.1135648,0.114015184,0.54435575,1.2721827,0.8548332,0.94238544,1.2978768,1.6282531,1.1777772,1.2169133,1.5335534,1.6831604,1.2507341,1.2121017,1.5684646,716.9902,686.898,694.5981,712.8304,736.01904,744.3386,768.05835,1258.2067,-1.0015869140625,0.03826904296875,0.004150390625,0.10467529296875,-0.515899658203125,-0.082244873046875,5.049077080800133,5.721807214553084,3.478396871945259,3.7130467539279497,0.0,0.0,0.0,0.0,0.0,0.0,0.0,0.0,0.0,0.0,0.0,0.0,63.11787,1,1.0,1.0,1.0,1.0,51.74
2026-01-16 05:45:45.494,,,,,,,,,,,,,,,,,,,,,,,,,,,,,,,,,,,,,,,,,,,,,,,,,,,,,,,,,,/muse/elements/jaw_clench
2026-01-16 05:45:45.731,,,,,,,,,,,,,,,,,,,,,,,,,,,,,,,,,,,,,,,,,,,,,,,,,,,,,,,,,,/muse/elements/jaw_clench
2026-01-16 05:45:45.732,,,,,,,,,,,,,,,,,,,,,,,,,,,,,,,,,,,,,,,,,,,,,,,,,,,,,,,,,,/muse/elements/blink
2026-01-16 05:45:46.327,0.03544493,-0.37939796,-0.33539152,-0.06988243,0.5893708,0.17782919,0.18515255,0.5627959,1.2854897,0.8250874,0.90104336,1.2796143,1.5832475,1.1394563,1.2078809,1.545259,1.6712236,1.2639762,1.2552742,1.6323894,722.8316,692.4739,700.7935,719.9994,747.6134,739.7363,759.1192,1263.8711,-1.00177001953125,0.037353515625,7.32421875E-4,0.07476806640625,-0.2093505859375,0.10467529296875,5.051487971771214,5.724309658345851,3.4785494599814033,3.7137486588942137,0.0,0.0,0.0,0.0,0.0,0.0,0.0,0.0,0.0,0.0,0.0,0.0,62.257416,1,1.0,1.0,1.0,1.0,51.73
2026-01-16 05:45:46.860,,,,,,,,,,,,,,,,,,,,,,,,,,,,,,,,,,,,,,,,,,,,,,,,,,,,,,,,,,/muse/elements/jaw_clench
2026-01-16 05:45:47.344,7.024684E-4,-0.16159615,-0.3471295,-0.24891365,0.61444485,0.08203919,0.15466234,0.54987323,1.0155108,0.65901095,0.75685227,1.0322403,1.5357367,1.0805302,1.1567883,1.4912381,1.5303296,1.1736801,1.2096499,1.4782562,722.12354,743.18805,741.949,717.96375,743.45355,752.83527,756.64105,1243.6031,-1.00225830078125,0.04046630859375,7.32421875E-4,0.112152099609375,-0.34393310546875,0.067291259765625,5.0564318241422885,5.729161957895239,3.486361967431991,3.718997687337577,0.0,0.0,0.0,0.0,0.0,0.0,0.0,0.0,0.0,0.0,0.0,0.0,61.887836,1,1.0,1.0,1.0,1.0,51.73
2026-01-16 05:45:47.427,,,,,,,,,,,,,,,,,,,,,,,,,,,,,,,,,,,,,,,,,,,,,,,,,,,,,,,,,,/muse/elements/blink
2026-01-16 05:45:47.630,,,,,,,,,,,,,,,,,,,,,,,,,,,,,,,,,,,,,,,,,,,,,,,,,,,,,,,,,,/muse/elements/jaw_clench
2026-01-16 05:45:47.828,,,,,,,,,,,,,,,,,,,,,,,,,,,,,,,,,,,,,,,,,,,,,,,,,,,,,,,,,,/muse/elements/jaw_clench
2026-01-16 05:45:48.108,,,,,,,,,,,,,,,,,,,,,,,,,,,,,,,,,,,,,,,,,,,,,,,,,,,,,,,,,,/muse/elements/jaw_clench
2026-01-16 05:45:48.340,,,,,,,,,,,,,,,,,,,,,,,,,,,,,,,,,,,,,,,,,,,,,,,,,,,,,,,,,,/muse/elements/jaw_clench
2026-01-16 05:45:48.357,0.08438647,-0.0079479,-0.44144076,0.07442549,0.58736897,0.26748502,0.038925476,0.5988114,1.2561305,0.8698994,0.78383577,1.2310493,1.6108923,1.0287976,1.1047726,1.5890886,1.7171752,1.2284067,1.266097,1.7299755,709.82117,676.4542,701.3245,709.55566,738.0547,734.957,733.8064,1154.4772,-0.99835205078125,0.03717041015625,0.0108642578125,-0.186920166015625,-0.83740234375,-0.31402587890625,5.032353432038719,5.723607753379587,3.4667086283766064,3.7142064230026466,0.0,0.0,0.0,0.0,0.0,0.0,0.0,0.0,0.0,0.0,0.0,0.0,61.75097,1,1.0,1.0,1.0,1.0,51.73
2026-01-16 05:45:48.474,,,,,,,,,,,,,,,,,,,,,,,,,,,,,,,,,,,,,,,,,,,,,,,,,,,,,,,,,,/muse/elements/jaw_clench
2026-01-16 05:45:48.943,,,,,,,,,,,,,,,,,,,,,,,,,,,,,,,,,,,,,,,,,,,,,,,,,,,,,,,,,,/muse/elements/blink
2026-01-16 05:45:49.369,-0.05066884,-0.07107204,-0.39781368,0.13084076,0.5091494,0.31070068,-0.00840544,0.579765,1.2795455,0.83429193,0.78383577,1.2893558,1.4579005,1.081864,0.99342096,1.5330651,1.6316365,1.2460842,1.1897188,1.7053804,728.85004,717.87524,718.7603,728.4075,757.26056,760.71234,750.26855,1347.7751,-1.0020751953125,0.0411376953125,0.00146484375,0.22430419921875,-0.538330078125,0.052337646484375,5.0119981880170705,5.709264477982023,3.4440950814200226,3.698642443315929,0.0,0.0,0.0,0.0,0.0,0.0,0.0,0.0,0.0,0.0,0.0,0.0,61.45033,1,1.0,1.0,1.0,1.0,51.73
2026-01-16 05:45:49.590,,,,,,,,,,,,,,,,,,,,,,,,,,,,,,,,,,,,,,,,,,,,,,,,,,,,,,,,,,/muse/elements/blink
2026-01-16 05:45:50.126,,,,,,,,,,,,,,,,,,,,,,,,,,,,,,,,,,,,,,,,,,,,,,,,,,,,,,,,,,/muse/elements/jaw_clench
2026-01-16 05:45:50.371,,,,,,,,,,,,,,,,,,,,,,,,,,,,,,,,,,,,,,,,,,,,,,,,,,,,,,,,,,/muse/elements/jaw_clench
2026-01-16 05:45:50.379,-0.20353362,-0.07107204,-0.25908646,0.09351535,0.3815458,0.31070068,0.05597895,0.45494518,1.1434796,0.83429193,0.36462474,1.0928687,1.3025402,1.081864,0.877314,1.2699481,1.4373987,1.2460842,1.1496754,1.4529235,737.4351,703.36017,713.98096,732.6558,687.6946,672.20593,655.8323,1162.0887,-1.0008544921875,0.04095458984375,0.01031494140625,-0.01495361328125,-0.426177978515625,0.022430419921875,5.005345349641179,5.697698304842286,3.4331392604248623,3.6853672841713756,0.0,0.0,0.0,0.0,0.0,0.0,0.0,0.0,0.0,0.0,0.0,0.0,62.07626,1,1.0,1.0,1.0,1.0,51.73
2026-01-16 05:45:50.588,,,,,,,,,,,,,,,,,,,,,,,,,,,,,,,,,,,,,,,,,,,,,,,,,,,,,,,,,,/muse/elements/jaw_clench
2026-01-16 05:45:50.851,,,,,,,,,,,,,,,,,,,,,,,,,,,,,,,,,,,,,,,,,,,,,,,,,,,,,,,,,,/muse/elements/jaw_clench
2026-01-16 05:45:51.085,,,,,,,,,,,,,,,,,,,,,,,,,,,,,,,,,,,,,,,,,,,,,,,,,,,,,,,,,,/muse/elements/blink
2026-01-16 05:45:51.384,-0.09834067,-0.04123237,-0.57789534,-0.20732445,0.1876037,-0.16971634,-0.3782355,0.12527972,0.8672186,0.27196923,0.35094723,0.7859218,1.0947496,0.45703882,0.62705386,0.90366584,1.2445953,0.758721,0.78176075,1.1731844,734.3374,697.34174,712.6534,731.59375,595.82495,571.13165,572.1052,898.6053,-0.9954833984375,0.0384521484375,0.00714111328125,0.142059326171875,-0.478515625,0.127105712890625,5.006779677180936,5.69437188565434,3.4314302744200464,3.6797215268340366,0.0,0.0,0.0,0.0,0.0,0.0,0.0,0.0,0.0,0.0,0.0,0.0,64.416,1,1.0,1.0,1.0,1.0,51.73
2026-01-16 05:45:51.636,,,,,,,,,,,,,,,,,,,,,,,,,,,,,,,,,,,,,,,,,,,,,,,,,,,,,,,,,,/muse/elements/jaw_clench
2026-01-16 05:45:52.337,,,,,,,,,,,,,,,,,,,,,,,,,,,,,,,,,,,,,,,,,,,,,,,,,,,,,,,,,,/muse/elements/jaw_clench
2026-01-16 05:45:52.395,-0.14665684,-0.3314013,-0.88485336,-0.1783832,0.06478939,-0.40601784,-0.4800029,0.29290035,0.6727202,0.2433742,0.39640474,0.7866545,0.9285205,0.69940025,0.6979026,0.9983209,1.0668654,0.82382435,0.79468596,1.1853235,729.38104,762.4824,747.17084,730.7972,779.7412,780.6263,757.7916,1197.4913,-0.998291015625,0.0367431640625,0.00531005859375,0.299072265625,-0.3887939453125,0.067291259765625,5.007603652576115,5.6945244736904845,3.430331640559807,3.6782261640798226,0.0,0.0,0.0,0.0,0.0,0.0,0.0,0.0,0.0,0.0,0.0,0.0,66.23595,1,1.0,1.0,1.0,1.0,51.70
2026-01-16 05:45:52.634,,,,,,,,,,,,,,,,,,,,,,,,,,,,,,,,,,,,,,,,,,,,,,,,,,,,,,,,,,/muse/elements/jaw_clench
2026-01-16 05:45:52.967,,,,,,,,,,,,,,,,,,,,,,,,,,,,,,,,,,,,,,,,,,,,,,,,,,,,,,,,,,/muse/elements/jaw_clench
2026-01-16 05:45:53.404,-0.1132015,-0.29173157,-0.20815234,-0.08265369,0.03116836,-0.5109052,-0.4476156,0.17331462,0.728399,0.099309444,0.07833476,0.9180047,0.9098475,0.61886615,0.5174091,0.8263764,0.9229152,0.6064681,0.5140759,0.77768654,731.77075,772.39514,752.65826,727.69946,773.1917,769.563,747.9674,1188.0211,-1.0009765625,0.04150390625,0.00177001953125,0.186920166015625,-0.299072265625,0.082244873046875,5.014409078988151,5.699071597167585,3.437808454330878,3.6835972629521017,0.0,0.0,0.0,0.0,0.0,0.0,0.0,0.0,0.0,0.0,0.0,0.0,65.87521,1,1.0,1.0,1.0,1.0,51.70
2026-01-16 05:45:53.731,,,,,,,,,,,,,,,,,,,,,,,,,,,,,,,,,,,,,,,,,,,,,,,,,,,,,,,,,,/muse/elements/jaw_clench
2026-01-16 05:45:53.895,,,,,,,,,,,,,,,,,,,,,,,,,,,,,,,,,,,,,,,,,,,,,,,,,,,,,,,,,,/muse/elements/jaw_clench
2026-01-16 05:45:54.000,,,,,,,,,,,,,,,,,,,,,,,,,,,,,,,,,,,,,,,,,,,,,,,,,,,,,,,,,,/muse/elements/blink
2026-01-16 05:45:54.413,0.40201694,-0.2857942,-0.073784225,-0.23202768,0.7524787,-0.10455017,-0.13511202,0.5137053,1.3029702,0.7748891,0.72268367,1.388053,1.6745874,1.0957007,0.89393014,1.5079013,1.7104418,1.1530589,0.8677645,1.5263789,717.87524,731.1512,727.1684,710.4407,563.4316,550.15564,593.9663,597.5951,-0.9996337890625,0.04083251953125,0.00799560546875,-0.112152099609375,-0.49346923828125,-0.11962890625,5.027897861383306,5.704137519967575,3.4482149583959183,3.690005960470162,0.0,0.0,0.0,0.0,0.0,0.0,0.0,0.0,0.0,0.0,0.0,0.0,63.867657,1,1.0,1.0,1.0,1.0,51.70
2026-01-16 05:45:54.863,,,,,,,,,,,,,,,,,,,,,,,,,,,,,,,,,,,,,,,,,,,,,,,,,,,,,,,,,,/muse/elements/blink
2026-01-16 05:45:55.425,0.27772573,-0.115011364,-0.40526518,-0.23537321,0.61380863,0.15070683,-0.0040043364,0.6491414,1.3029702,0.81043404,0.7745392,1.3565357,1.543026,1.1453696,1.0106888,1.5949308,1.5814471,1.2534016,1.0698776,1.6219271,705.5729,743.7191,736.8156,703.71423,756.287,762.571,761.5089,1201.2086,-0.99945068359375,0.04144287109375,0.005126953125,0.1495361328125,-0.49346923828125,0.19439697265625,5.026249910592948,5.70294733328565,3.446536489998331,3.688266456858117,0.0,0.0,0.0,0.0,0.0,0.0,0.0,0.0,0.0,0.0,0.0,0.0,63.32357,1,1.0,1.0,1.0,1.0,51.70
2026-01-16 05:45:55.709,,,,,,,,,,,,,,,,,,,,,,,,,,,,,,,,,,,,,,,,,,,,,,,,,,,,,,,,,,/muse/elements/jaw_clench
2026-01-16 05:45:56.441,0.34211755,0.096166275,-0.24559063,-0.223424,0.60891265,0.098624706,0.05548942,0.6835212,1.018244,0.58965063,0.7580208,0.8281941,1.4965369,0.8523602,0.97664416,1.4253428,1.5699503,1.0091792,1.0611558,1.4547253,717.4327,756.11,745.57776,717.78674,750.18005,739.38226,739.20526,1057.2087,-0.9996337890625,0.041259765625,0.00311279296875,0.097198486328125,-0.35888671875,-0.142059326171875,5.03152945664354,5.708348949765157,3.4502901556874805,3.6915928760460623,0.0,0.0,0.0,0.0,0.0,0.0,0.0,0.0,0.0,0.0,0.0,0.0,63.730827,1,1.0,1.0,1.0,1.0,51.70
2026-01-16 05:45:56.451,,,,,,,,,,,,,,,,,,,,,,,,,,,,,,,,,,,,,,,,,,,,,,,,,,,,,,,,,,/muse/elements/jaw_clench
2026-01-16 05:45:57.087,,,,,,,,,,,,,,,,,,,,,,,,,,,,,,,,,,,,,,,,,,,,,,,,,,,,,,,,,,/muse/elements/jaw_clench
2026-01-16 05:45:57.089,,,,,,,,,,,,,,,,,,,,,,,,,,,,,,,,,,,,,,,,,,,,,,,,,,,,,,,,,,/muse/elements/blink
2026-01-16 05:45:57.342,,,,,,,,,,,,,,,,,,,,,,,,,,,,,,,,,,,,,,,,,,,,,,,,,,,,,,,,,,/muse/elements/jaw_clench
2026-01-16 05:45:57.456,0.02321608,-0.022313967,-0.23389523,0.17470622,0.54885876,0.40160206,0.23740765,0.6687212,1.2676541,0.7871946,0.842284,1.2745836,1.5804509,1.1815817,1.2186738,1.5694774,1.6454418,1.3157256,1.3077399,1.6247308,807.7977,792.66315,777.79407,803.72644,447.04572,434.92035,479.08502,368.62906,-0.99993896484375,0.0433349609375,0.00592041015625,0.186920166015625,-0.291595458984375,0.13458251953125,5.040257492310993,5.715581622678397,3.4599947547862575,3.6994664187111077,0.0,0.0,0.0,0.0,0.0,0.0,0.0,0.0,0.0,0.0,0.0,0.0,62.614246,1,1.0,1.0,1.0,1.0,51.66
2026-01-16 05:45:57.571,,,,,,,,,,,,,,,,,,,,,,,,,,,,,,,,,,,,,,,,,,,,,,,,,,,,,,,,,,/muse/elements/jaw_clench
2026-01-16 05:45:57.841,,,,,,,,,,,,,,,,,,,,,,,,,,,,,,,,,,,,,,,,,,,,,,,,,,,,,,,,,,/muse/elements/jaw_clench
2026-01-16 05:45:58.088,,,,,,,,,,,,,,,,,,,,,,,,,,,,,,,,,,,,,,,,,,,,,,,,,,,,,,,,,,/muse/elements/jaw_clench
2026-01-16 05:45:58.472,0.111773595,-0.08113255,-0.243931,0.35258913,0.496936,0.30127183,0.23037949,0.5636755,1.2491843,0.81434184,0.8831364,1.2356468,1.5676025,1.1359046,1.2758679,1.5092145,1.6671792,1.3472607,1.364605,1.6118039,731.1512,754.9594,741.772,736.10754,751.3306,746.90533,753.72034,1206.6074,-0.99920654296875,0.0440673828125,0.0030517578125,0.246734619140625,-0.082244873046875,0.127105712890625,5.044041675607372,5.719365805974776,3.46420618458384,3.704318718260496,0.0,0.0,0.0,0.0,0.0,0.0,0.0,0.0,0.0,0.0,0.0,0.0,61.149563,1,1.0,1.0,1.0,1.0,51.66
2026-01-16 05:45:58.478,,,,,,,,,,,,,,,,,,,,,,,,,,,,,,,,,,,,,,,,,,,,,,,,,,,,,,,,,,/muse/elements/jaw_clench
2026-01-16 05:45:58.718,,,,,,,,,,,,,,,,,,,,,,,,,,,,,,,,,,,,,,,,,,,,,,,,,,,,,,,,,,/muse/elements/jaw_clench
2026-01-16 05:45:58.949,,,,,,,,,,,,,,,,,,,,,,,,,,,,,,,,,,,,,,,,,,,,,,,,,,,,,,,,,,/muse/elements/jaw_clench
2026-01-16 05:45:59.219,,,,,,,,,,,,,,,,,,,,,,,,,,,,,,,,,,,,,,,,,,,,,,,,,,,,,,,,,,/muse/elements/jaw_clench
2026-01-16 05:45:59.470,,,,,,,,,,,,,,,,,,,,,,,,,,,,,,,,,,,,,,,,,,,,,,,,,,,,,,,,,,/muse/elements/jaw_clench
2026-01-16 05:45:59.485,0.23435542,-0.0734029,-0.017227016,0.4645507,0.51413876,0.07028437,0.18327503,0.47354233,1.0783553,0.71636647,0.8035192,1.0525917,1.393808,1.0052366,1.1342511,1.3287753,1.5340443,1.1978754,1.1829588,1.4047362,738.4087,737.7892,743.6306,744.8697,735.311,733.2753,721.14996,1136.9529,-0.99951171875,0.03631591796875,0.007080078125,0.0897216796875,-0.49346923828125,-0.171966552734375,5.04996209140977,5.7215020384807955,3.470401258851298,3.7069127148749494,0.0,0.0,0.0,0.0,0.0,0.0,0.0,0.0,0.0,0.0,0.0,0.0,61.28075,1,1.0,1.0,1.0,1.0,51.66
2026-01-16 05:45:59.699,,,,,,,,,,,,,,,,,,,,,,,,,,,,,,,,,,,,,,,,,,,,,,,,,,,,,,,,,,/muse/elements/jaw_clench
2026-01-16 05:45:59.851,,,,,,,,,,,,,,,,,,,,,,,,,,,,,,,,,,,,,,,,,,,,,,,,,,,,,,,,,,/muse/elements/jaw_clench
2026-01-16 05:46:00.318,,,,,,,,,,,,,,,,,,,,,,,,,,,,,,,,,,,,,,,,,,,,,,,,,,,,,,,,,,/muse/elements/blink
2026-01-16 05:46:00.350,,,,,,,,,,,,,,,,,,,,,,,,,,,,,,,,,,,,,,,,,,,,,,,,,,,,,,,,,,/muse/elements/jaw_clench
2026-01-16 05:46:00.498,0.23435542,-0.17290507,-0.075675964,0.5053487,0.51413876,0.15075897,-0.1075124,0.30042,1.0783553,0.4546374,0.6178166,0.8389423,1.393808,0.9212772,0.9709254,1.2136974,1.5340443,0.91387475,0.9553349,1.2261543,705.3958,686.721,700.08545,702.2981,755.8445,759.4732,770.448,1264.4021,-1.00091552734375,0.03887939453125,0.00341796875,0.01495361328125,-0.3887939453125,-0.216827392578125,5.054936461388074,5.723088954056696,3.4740023365043036,3.707858760699044,0.0,0.0,0.0,0.0,0.0,0.0,0.0,0.0,0.0,0.0,0.0,0.0,62.342854,1,1.0,1.0,1.0,1.0,51.66
2026-01-16 05:46:00.823,,,,,,,,,,,,,,,,,,,,,,,,,,,,,,,,,,,,,,,,,,,,,,,,,,,,,,,,,,/muse/elements/jaw_clench
2026-01-16 05:46:01.507,0.23435542,-0.3223548,-0.23947936,0.5194551,0.51413876,0.04627054,-0.20073974,0.06797238,1.0783553,0.4827222,0.3894237,0.45146322,1.393808,0.86462486,1.0002477,0.88777584,1.5340443,0.975336,1.0028273,0.91381794,727.78796,713.0959,707.7855,719.1143,749.2065,747.43634,759.2077,1263.3401,-1.00213623046875,0.0384521484375,0.00738525390625,0.142059326171875,-0.291595458984375,-0.112152099609375,5.055607848747109,5.722478601912119,3.4728426674296067,3.707645137448442,0.0,0.0,0.0,0.0,0.0,0.0,0.0,0.0,0.0,0.0,0.0,0.0,62.392925,1,1.0,1.0,1.0,1.0,51.66
2026-01-16 05:46:01.733,,,,,,,,,,,,,,,,,,,,,,,,,,,,,,,,,,,,,,,,,,,,,,,,,,,,,,,,,,/muse/elements/jaw_clench
2026-01-16 05:46:01.830,,,,,,,,,,,,,,,,,,,,,,,,,,,,,,,,,,,,,,,,,,,,,,,,,,,,,,,,,,/muse/elements/blink
2026-01-16 05:46:02.515,0.23435542,-0.43650833,-0.47035268,0.5194551,0.51413876,-0.08317557,-0.040330082,0.06797238,1.0783553,0.3331036,0.39895934,0.45146322,1.393808,0.7926641,0.7969749,0.88777584,1.5340443,0.9123365,0.81436473,0.91381794,722.30054,753.1893,746.28577,724.77875,740.44434,728.23047,741.2409,1220.6799,-1.00048828125,0.03607177734375,0.00628662109375,-0.037384033203125,-0.426177978515625,0.04486083984375,5.065678659132632,5.7312066375795725,3.485507474429583,3.7150609160050543,0.0,0.0,0.0,0.0,0.0,0.0,0.0,0.0,0.0,0.0,0.0,0.0,61.7957,1,2.0,1.0,1.0,2.0,51.66
2026-01-16 05:46:02.830,,,,,,,,,,,,,,,,,,,,,,,,,,,,,,,,,,,,,,,,,,,,,,,,,,,,,,,,,,/muse/elements/jaw_clench
2026-01-16 05:46:02.959,,,,,,,,,,,,,,,,,,,,,,,,,,,,,,,,,,,,,,,,,,,,,,,,,,,,,,,,,,/muse/elements/jaw_clench
2026-01-16 05:46:03.522,0.0130424695,-0.298892,-0.28972954,0.19170699,-0.1310613,-0.14815952,-0.13691719,0.027578687,0.4183476,0.14931238,0.40001357,0.51142883,0.6192847,0.6579626,0.58981854,0.5627427,0.7388352,0.66485447,0.6144833,0.729097,722.21204,728.05347,729.6466,716.0166,756.0215,756.64105,767.70435,1247.4974,-1.0020751953125,0.03955078125,0.00604248046875,0.261688232421875,-0.246734619140625,0.396270751953125,5.064610542879622,5.728276947285602,3.4821810552416377,3.7119786376749397,0.0,0.0,0.0,0.0,0.0,0.0,0.0,0.0,0.0,0.0,0.0,0.0,62.148182,1,1.0,1.0,1.0,1.0,51.64
2026-01-16 05:46:03.843,,,,,,,,,,,,,,,,,,,,,,,,,,,,,,,,,,,,,,,,,,,,,,,,,,,,,,,,,,/muse/elements/jaw_clench
2026-01-16 05:46:04.078,,,,,,,,,,,,,,,,,,,,,,,,,,,,,,,,,,,,,,,,,,,,,,,,,,,,,,,,,,/muse/elements/jaw_clench
2026-01-16 05:46:04.537,-0.1615818,-0.34557104,-0.28663462,0.13644053,-0.22180401,-0.21709622,-0.38895443,0.06028661,0.4891475,0.1698465,-0.18261307,0.5082564,0.50492793,0.23280846,0.10944476,0.50622565,0.6484147,0.4200554,0.29318064,0.6790056,718.31775,714.6005,715.22003,720.1764,515.1071,509.61972,553.7844,522.0106,-1.00225830078125,0.0400390625,0.00836181640625,0.022430419921875,-0.500946044921875,0.04486083984375,5.063695014662756,5.725835538707293,3.4836153827813936,3.7096898171327752,0.0,0.0,0.0,0.0,0.0,0.0,0.0,0.0,0.0,0.0,0.0,0.0,62.6334,1,1.0,1.0,1.0,1.0,51.64
2026-01-16 05:46:04.689,,,,,,,,,,,,,,,,,,,,,,,,,,,,,,,,,,,,,,,,,,,,,,,,,,,,,,,,,,/muse/elements/jaw_clench
2026-01-16 05:46:04.941,,,,,,,,,,,,,,,,,,,,,,,,,,,,,,,,,,,,,,,,,,,,,,,,,,,,,,,,,,/muse/elements/jaw_clench
2026-01-16 05:46:05.552,-0.13719115,-0.33858892,-0.33980116,0.17423426,0.07710405,-0.14075868,0.052440766,0.39828628,1.1056908,0.7542498,0.6721141,1.1211464,1.1346141,0.7401096,0.76200974,1.1328268,1.1575131,0.84230113,0.82230073,1.1303273,702.56366,699.73145,709.3786,698.3153,747.7904,747.7904,759.56177,1264.9331,-1.0001220703125,0.03875732421875,3.662109375E-4,0.396270751953125,-0.11962890625,0.485992431640625,5.06573969434709,5.727452971890423,3.4821810552416377,3.70877428891591,0.0,0.0,0.0,0.0,0.0,0.0,0.0,0.0,0.0,0.0,0.0,0.0,61.918697,1,1.0,1.0,1.0,1.0,51.64
2026-01-16 05:46:06.088,,,,,,,,,,,,,,,,,,,,,,,,,,,,,,,,,,,,,,,,,,,,,,,,,,,,,,,,,,/muse/elements/jaw_clench
2026-01-16 05:46:06.558,0.05419833,-0.13646567,-0.37997243,-0.032296356,0.51060665,0.1565344,0.15100233,0.58168304,1.149225,0.81243134,0.7531044,1.1621326,1.515256,1.0803198,1.1023765,1.4197086,1.5661896,1.1844858,1.1719472,1.4796386,720.97296,683.4462,698.9349,723.3626,744.4271,750.5341,771.06757,1261.924,-1.00128173828125,0.03973388671875,0.00146484375,0.10467529296875,-0.49346923828125,0.059814453125,5.06973750089407,5.730108003719334,3.488772858403071,3.712558472212288,0.0,0.0,0.0,0.0,0.0,0.0,0.0,0.0,0.0,0.0,0.0,0.0,60.92495,1,1.0,1.0,1.0,1.0,51.64
2026-01-16 05:46:06.698,,,,,,,,,,,,,,,,,,,,,,,,,,,,,,,,,,,,,,,,,,,,,,,,,,,,,,,,,,/muse/elements/jaw_clench
2026-01-16 05:46:06.856,,,,,,,,,,,,,,,,,,,,,,,,,,,,,,,,,,,,,,,,,,,,,,,,,,,,,,,,,,/muse/elements/jaw_clench
2026-01-16 05:46:07.105,,,,,,,,,,,,,,,,,,,,,,,,,,,,,,,,,,,,,,,,,,,,,,,,,,,,,,,,,,/muse/elements/blink
2026-01-16 05:46:07.352,,,,,,,,,,,,,,,,,,,,,,,,,,,,,,,,,,,,,,,,,,,,,,,,,,,,,,,,,,/muse/elements/jaw_clench
2026-01-16 05:46:07.485,,,,,,,,,,,,,,,,,,,,,,,,,,,,,,,,,,,,,,,,,,,,,,,,,,,,,,,,,,/muse/elements/jaw_clench
2026-01-16 05:46:07.574,-0.270045,-0.32801005,-0.54808575,-0.3158693,0.48612654,0.2627475,0.17351785,0.5507126,1.088037,0.75094634,0.7931959,1.1383456,1.3826015,1.1617996,1.1588259,1.3737394,1.4740326,1.1998972,1.1768496,1.485631,722.9201,738.2317,737.6122,728.496,746.46277,765.8457,783.28143,1271.4827,-1.0001220703125,0.0379638671875,0.00689697265625,0.1495361328125,-0.306549072265625,-0.186920166015625,5.058751162291681,5.727636077533796,3.4804110340223637,3.7122838137472285,0.0,0.0,0.0,0.0,0.0,0.0,0.0,0.0,0.0,0.0,0.0,0.0,61.127735,1,1.0,1.0,1.0,1.0,51.64
2026-01-16 05:46:07.835,,,,,,,,,,,,,,,,,,,,,,,,,,,,,,,,,,,,,,,,,,,,,,,,,,,,,,,,,,/muse/elements/jaw_clench
2026-01-16 05:46:08.072,,,,,,,,,,,,,,,,,,,,,,,,,,,,,,,,,,,,,,,,,,,,,,,,,,,,,,,,,,/muse/elements/jaw_clench
2026-01-16 05:46:08.582,0.20469028,-0.29520768,-0.3898171,0.21677084,0.6399032,0.2789309,0.3093977,0.7311167,1.2257675,0.8468606,0.9306414,1.2849786,1.5193087,1.2445153,1.2382476,1.5244678,1.6367782,1.2994843,1.2772539,1.5951866,732.30176,763.1905,747.34784,734.957,761.24335,763.102,763.54456,1364.7683,-0.998046875,0.04461669921875,0.00738525390625,-0.067291259765625,-0.904693603515625,-0.10467529296875,5.037877118947143,5.719091147509715,3.457370240564576,3.701633168824357,0.0,0.0,0.0,0.0,0.0,0.0,0.0,0.0,0.0,0.0,0.0,0.0,60.802887,1,1.0,1.0,1.0,1.0,51.64
2026-01-16 05:46:08.716,,,,,,,,,,,,,,,,,,,,,,,,,,,,,,,,,,,,,,,,,,,,,,,,,,,,,,,,,,/muse/elements/jaw_clench
2026-01-16 05:46:08.932,,,,,,,,,,,,,,,,,,,,,,,,,,,,,,,,,,,,,,,,,,,,,,,,,,,,,,,,,,/muse/elements/jaw_clench
2026-01-16 05:46:09.325,,,,,,,,,,,,,,,,,,,,,,,,,,,,,,,,,,,,,,,,,,,,,,,,,,,,,,,,,,/muse/elements/jaw_clench
2026-01-16 05:46:09.577,,,,,,,,,,,,,,,,,,,,,,,,,,,,,,,,,,,,,,,,,,,,,,,,,,,,,,,,,,/muse/elements/jaw_clench
2026-01-16 05:46:09.596,0.13872775,-0.33402666,-0.46350056,0.3141337,0.6172438,0.14372364,0.21086784,0.73418486,1.2322061,0.7908155,0.91585845,1.304138,1.4816175,1.1397723,1.167205,1.5568036,1.525985,1.190658,1.1798986,1.5860106,730.8857,763.102,755.4019,739.5593,776.6435,775.9354,751.7732,1185.8085,-0.99981689453125,0.0384521484375,0.0048828125,0.28411865234375,-0.306549072265625,-0.097198486328125,5.040806809241113,5.722600672341034,3.463382209188661,3.70608873947977,0.0,0.0,0.0,0.0,0.0,0.0,0.0,0.0,0.0,0.0,0.0,0.0,60.426216,1,1.0,1.0,1.0,1.0,51.62
2026-01-16 05:46:09.827,,,,,,,,,,,,,,,,,,,,,,,,,,,,,,,,,,,,,,,,,,,,,,,,,,,,,,,,,,/muse/elements/jaw_clench
2026-01-16 05:46:10.062,,,,,,,,,,,,,,,,,,,,,,,,,,,,,,,,,,,,,,,,,,,,,,,,,,,,,,,,,,/muse/elements/blink
2026-01-16 05:46:10.062,,,,,,,,,,,,,,,,,,,,,,,,,,,,,,,,,,,,,,,,,,,,,,,,,,,,,,,,,,/muse/elements/jaw_clench
2026-01-16 05:46:10.349,,,,,,,,,,,,,,,,,,,,,,,,,,,,,,,,,,,,,,,,,,,,,,,,,,,,,,,,,,/muse/elements/jaw_clench
2026-01-16 05:46:10.574,,,,,,,,,,,,,,,,,,,,,,,,,,,,,,,,,,,,,,,,,,,,,,,,,,,,,,,,,,/muse/elements/jaw_clench
2026-01-16 05:46:10.599,0.11356315,-0.47345382,-0.39650312,0.19499476,0.4726696,0.12814936,0.049931437,0.40793866,1.09432,0.59747577,0.702716,1.1456612,1.4574047,1.099484,1.1650587,1.4497385,1.4958822,1.12082,1.1701566,1.4959304,706.90045,685.12787,704.33374,707.6085,739.29376,736.9926,736.9926,1164.3899,-1.00421142578125,0.04461669921875,-1.220703125E-4,0.127105712890625,-0.351409912109375,0.037384033203125,5.042149583959183,5.723211024485612,3.463748420475407,3.70636339794483,0.0,0.0,0.0,0.0,0.0,0.0,0.0,0.0,0.0,0.0,0.0,0.0,60.57279,1,1.0,1.0,1.0,1.0,51.62
2026-01-16 05:46:10.726,,,,,,,,,,,,,,,,,,,,,,,,,,,,,,,,,,,,,,,,,,,,,,,,,,,,,,,,,,/muse/elements/jaw_clench
2026-01-16 05:46:10.977,,,,,,,,,,,,,,,,,,,,,,,,,,,,,,,,,,,,,,,,,,,,,,,,,,,,,,,,,,/muse/elements/blink
2026-01-16 05:46:11.566,,,,,,,,,,,,,,,,,,,,,,,,,,,,,,,,,,,,,,,,,,,,,,,,,,,,,,,,,,/muse/elements/jaw_clench
2026-01-16 05:46:11.611,-0.17039683,-0.53699213,-0.44912675,-0.119351156,0.349394,0.011982181,-0.15119177,0.13870259,0.9414764,0.4753648,0.65695214,0.88995856,1.234217,0.71643263,0.88701767,1.0622146,1.4072886,0.8684844,1.0362113,1.2489651,736.7271,715.8396,726.0178,738.85126,753.2778,770.271,778.67914,1402.7375,-0.99798583984375,0.04278564453125,0.00457763671875,0.216827392578125,-0.478515625,-0.037384033203125,5.034977946260401,5.716191974822974,3.4539827861621726,3.698825548959302,0.0,0.0,0.0,0.0,0.0,0.0,0.0,0.0,0.0,0.0,0.0,0.0,60.5732,1,1.0,1.0,1.0,1.0,51.62
2026-01-16 05:46:11.946,,,,,,,,,,,,,,,,,,,,,,,,,,,,,,,,,,,,,,,,,,,,,,,,,,,,,,,,,,/muse/elements/jaw_clench
2026-01-16 05:46:12.570,,,,,,,,,,,,,,,,,,,,,,,,,,,,,,,,,,,,,,,,,,,,,,,,,,,,,,,,,,/muse/elements/jaw_clench
2026-01-16 05:46:12.620,-0.5072647,-0.21431096,-0.6843261,-0.24362202,0.48643842,-0.0055025904,-0.22118819,0.3494564,0.89452505,0.24585511,0.5664807,0.73852855,1.2659042,0.87182164,0.86226994,1.1944197,1.3030807,0.80495965,0.9492141,1.2003918,723.4511,751.9502,737.1696,717.69824,743.45355,759.8273,743.27655,1053.757,-0.997802734375,0.0391845703125,0.00592041015625,0.082244873046875,-0.59814453125,0.11962890625,5.031498939036311,5.711858474596476,3.447848747109172,3.6925999570846146,0.0,0.0,0.0,0.0,0.0,0.0,0.0,0.0,0.0,0.0,0.0,0.0,60.884094,1,1.0,1.0,1.0,1.0,51.62
2026-01-16 05:46:12.770,,,,,,,,,,,,,,,,,,,,,,,,,,,,,,,,,,,,,,,,,,,,,,,,,,,,,,,,,,/muse/elements/jaw_clench
2026-01-16 05:46:13.474,,,,,,,,,,,,,,,,,,,,,,,,,,,,,,,,,,,,,,,,,,,,,,,,,,,,,,,,,,/muse/elements/jaw_clench
2026-01-16 05:46:13.637,-0.24461806,-0.17995428,-0.4416867,-0.19722132,0.023428142,-0.055592883,-0.29203564,0.0864824,0.8932745,0.47123596,0.29678687,0.7444401,0.8675367,0.6923917,0.6381681,1.0078001,1.1184164,0.81103235,0.7490148,1.135655,728.496,763.63306,748.4984,716.0166,774.4308,783.8125,756.287,1156.8668,-0.99859619140625,0.0455322265625,0.0108642578125,0.112152099609375,-0.59814453125,0.082244873046875,5.028111484633908,5.707952220871182,3.4454073385308632,3.6885716329304055,0.0,0.0,0.0,0.0,0.0,0.0,0.0,0.0,0.0,0.0,0.0,0.0,62.149162,1,1.0,1.0,1.0,1.0,51.62
2026-01-16 05:46:13.708,,,,,,,,,,,,,,,,,,,,,,,,,,,,,,,,,,,,,,,,,,,,,,,,,,,,,,,,,,/muse/elements/jaw_clench
2026-01-16 05:46:13.830,,,,,,,,,,,,,,,,,,,,,,,,,,,,,,,,,,,,,,,,,,,,,,,,,,,,,,,,,,/muse/elements/jaw_clench
2026-01-16 05:46:14.651,-0.39114377,-0.30600637,-0.20785289,-0.10271219,0.12259572,0.1629443,-0.21570204,0.21163572,0.8932745,0.5845827,0.45413926,0.7444401,0.9692421,0.82793653,0.7727438,1.0684719,1.2825465,1.001763,0.84003294,1.2394495,727.69946,767.52734,753.4548,729.46954,789.47687,783.0159,809.5679,1450.0,-1.0009765625,0.04052734375,0.00653076171875,0.186920166015625,-0.725250244140625,0.0897216796875,5.032139808788117,5.711309157666356,3.450168085258565,3.690890971079799,0.0,0.0,0.0,0.0,0.0,0.0,0.0,0.0,0.0,0.0,0.0,0.0,62.419975,1,1.0,1.0,1.0,1.0,51.60
2026-01-16 05:46:15.302,,,,,,,,,,,,,,,,,,,,,,,,,,,,,,,,,,,,,,,,,,,,,,,,,,,,,,,,,,/muse/elements/jaw_clench
2026-01-16 05:46:15.531,,,,,,,,,,,,,,,,,,,,,,,,,,,,,,,,,,,,,,,,,,,,,,,,,,,,,,,,,,/muse/elements/jaw_clench
2026-01-16 05:46:15.665,-0.051951934,-0.49974534,-0.35729155,-0.5649683,0.56357896,0.16820344,0.03653031,0.27836552,0.9227527,0.57738584,0.53193235,0.96412957,1.4196243,0.9616168,0.9983627,1.335378,1.4248099,1.0287663,0.96180123,1.3478673,712.9189,689.19916,708.051,711.32574,765.5802,756.90656,772.30664,1276.793,-1.0,0.04107666015625,0.00726318359375,-0.04486083984375,-0.366363525390625,-0.0897216796875,5.032719643325466,5.708959301909735,3.448123405574232,3.6892430202894406,0.0,0.0,0.0,0.0,0.0,0.0,0.0,0.0,0.0,0.0,0.0,0.0,61.45102,1,1.0,1.0,1.0,1.0,51.60
